Raman_Shift,Intensity
cm^-^1,a.u.
850.383,79.9091
850.858,81.3636
851.332,85.3636
851.807,83.7273
852.281,83.3636
852.756,80.0909
853.23,81.1818
853.703,83.3636
854.179,79.9091
854.652,84.8182
855.128,82.4545
855.601,79.1818
856.076,85.3636
856.55,82.8182
857.023,80.8182
857.498,86.4545
857.971,84.0909
858.447,84.0909
858.92,83.1818
859.393,85.7273
859.868,85.7273
860.341,86.2727
860.816,82.8182
861.289,79.9091
861.762,83.3636
862.237,86.8182
862.71,80.8182
863.183,79
863.658,83.1818
864.131,83.3636
864.604,83
865.079,85.1818
865.552,83.9091
866.024,86.2727
866.499,83.5455
866.972,83.1818
867.445,81.9091
867.917,81
868.392,81.1818
868.865,80.2727
869.337,82.4546
869.812,80.8182
870.285,79
870.757,80.6364
871.23,75.7273
871.704,77.9091
872.177,81.1818
872.649,82.2727
873.122,79.5455
873.594,79.7273
874.068,77.3636
874.541,73.9091
875.013,73.1818
875.485,75.9091
875.96,80.8182
876.432,76.2727
876.904,76.4545
877.376,73
877.849,77.5454
878.321,73.9091
878.795,72.6364
879.267,73.9091
879.739,74.2727
880.211,75.5454
880.683,74.4545
881.155,72.6364
881.629,72.6364
882.101,72.4545
882.573,73.9091
883.045,71.9091
883.517,66.2727
883.989,71.9091
884.461,73
884.933,74.2727
885.404,68.4546
885.876,73.7273
886.35,72.0909
886.822,71.9091
887.293,74.8182
887.765,65.5454
888.237,70.4545
888.708,72.0909
889.18,71.9091
889.651,72.6364
890.123,69
890.594,67.5454
891.066,69.3636
891.537,69.7273
892.009,71.1818
892.48,70.0909
892.952,71.3636
893.423,67.7273
893.894,66.4545
894.366,71.9091
894.837,69
895.308,67.3636
895.78,71
896.251,70.0909
896.722,71.3636
897.193,71.9091
897.664,72.6364
898.135,73.5455
898.607,67
899.078,71.5454
899.549,65.7273
900.02,65.1818
900.489,69.5455
900.96,63.3636
901.431,65.7273
901.902,69.3636
902.373,68.6364
902.843,70.4545
903.314,66.4545
903.785,67.9091
904.256,70.2727
904.725,71.1818
905.195,68.4545
905.666,72.6364
906.137,69.3636
906.608,68.0909
907.078,71.1818
907.549,71
908.018,65.3636
908.488,69.9091
908.959,72.0909
909.429,67
909.9,71.5454
910.368,67.3636
910.839,69
911.309,67.7273
911.78,70.0909
912.25,70.0909
912.718,72.2727
913.189,67.1818
913.659,72.4546
914.129,68.6364
914.598,72.0909
915.068,68.2727
915.538,67.5455
916.008,68.2727
916.477,66.2727
916.947,73
917.417,67.7273
917.887,70.2727
918.355,73.3636
918.825,71.5455
919.295,67.3636
919.763,66.8182
920.233,68.8182
920.703,68.8182
921.171,68.4545
921.641,65.5455
922.111,67.1818
922.579,71.1818
923.048,67.5455
923.518,67.1818
923.986,68.8182
924.456,68.0909
924.925,63.1818
925.393,70.2727
925.863,71.9091
926.333,68.6364
926.8,65.3636
927.27,62.2727
927.737,70.6364
928.207,59.7273
928.676,71
929.144,66.0909
929.613,67.7273
930.081,69
930.55,67.5455
931.018,66.6364
931.487,68.8182
931.957,68.2727
932.424,63.7273
932.893,67.1818
933.361,67.3636
933.83,66.0909
934.297,68.8182
934.766,67
935.234,66.0909
935.703,59.7273
936.17,65.7273
936.639,63.1818
937.106,62.4545
937.575,66.4546
938.042,63.1818
938.511,66.0909
938.978,67.3636
939.447,65.3636
939.914,65.3636
940.383,64.6364
940.85,61.3636
941.317,65
941.786,59.9091
942.253,63.5455
942.721,64.4545
943.188,66.4545
943.657,60.0909
944.124,57.9091
944.591,62.2727
945.059,60.4545
945.526,59.1818
945.995,58.0909
946.461,66.0909
946.928,63
947.396,64.2727
947.863,61.3636
948.329,60.6364
948.798,61.7273
949.264,66.4546
949.733,59.9091
950.199,62.2727
950.666,62.6364
951.134,59.3636
951.6,63.7273
952.067,61.5455
952.533,61.5455
953.001,58.2727
953.468,62.4545
953.934,59.1818
954.402,59
954.868,61.7273
955.334,58.2727
955.802,61
956.269,60.6364
956.735,57.3636
957.201,61
957.669,57.5455
958.135,59.5455
958.601,59.1818
959.067,57.3636
959.535,58.2727
960.001,56.6364
960.467,59.3636
960.932,60.4545
961.398,62.0909
961.866,61.5455
962.332,58.8182
962.798,63.3636
963.263,58.4545
963.729,61
964.197,57.7273
964.663,56.8182
965.128,57.3636
965.594,57.9091
966.059,58.0909
966.525,58.0909
966.991,60.8182
967.458,60.2727
967.924,55.9091
968.389,60.2727
968.855,54.4545
969.32,56.4545
969.785,58.6364
970.251,55.3636
970.716,57.5455
971.182,59
971.649,52.8182
972.114,56.4545
972.579,59
973.045,56.0909
973.51,55
973.975,57.9091
974.44,55.9091
974.905,55.7273
975.371,56.6364
975.836,54.4545
976.301,56.4545
976.766,54.4545
977.231,54.8182
977.696,56.4545
978.161,53.9091
978.626,58.8182
979.091,54.0909
979.556,55.3636
980.021,55.1818
980.485,58.0909
980.95,58.6364
981.415,60.4545
981.88,55.5455
982.345,56.8182
982.809,56.4545
983.274,55.9091
983.739,55.7273
984.203,55.9091
984.668,57.7273
985.133,61.1818
985.597,58.4545
986.06,55.3636
986.525,54.2727
986.989,58.6364
987.454,59
987.918,56.4545
988.383,56.6364
988.847,57.1818
989.311,60.4545
989.776,54.8182
990.238,51.9091
990.703,58.8182
991.167,58.4545
991.631,54.4545
992.095,55.7273
992.56,57.1818
993.024,59.1818
993.486,54.6364
993.95,51.9091
994.414,56.4545
994.878,57
995.343,54.2727
995.805,55.9091
996.269,57.7273
996.733,54.4545
997.197,61.3636
997.661,51.1818
998.123,52.8182
998.587,53.9091
999.051,55
999.514,56.4545
999.976,57.3636
1000.44,56.4545
1000.9,53.9091
1001.37,55.7273
1001.83,53.9091
1002.29,55.7273
1002.76,55
1003.22,52.2727
1003.68,57.9091
1004.15,52.0909
1004.61,56.0909
1005.07,54.6364
1005.53,54.0909
1006,54.8182
1006.46,55.5455
1006.92,58.6364
1007.39,55.9091
1007.85,54.8182
1008.31,55
1008.77,59.1818
1009.24,53.7273
1009.7,60.0909
1010.16,55.5455
1010.62,59.1818
1011.09,53.9091
1011.55,55.9091
1012.01,53.1818
1012.47,57.5455
1012.94,58.4545
1013.4,55.3636
1013.86,52.4545
1014.32,56.0909
1014.79,55.5455
1015.25,53.9091
1015.71,56.8182
1016.17,55.7273
1016.63,54.2727
1017.1,54.8182
1017.56,53.5455
1018.02,53.9091
1018.48,55.9091
1018.94,61.7273
1019.41,57
1019.87,53.9091
1020.33,52.2727
1020.79,56.0909
1021.25,54.6364
1021.72,53.1818
1022.18,59.9091
1022.64,57.3636
1023.1,58.2727
1023.56,61
1024.02,60.8182
1024.49,59.3636
1024.95,55
1025.41,58.0909
1025.87,56.2727
1026.33,63
1026.79,60.2727
1027.25,57
1027.71,63.9091
1028.18,62.8182
1028.64,62.8182
1029.1,60.6364
1029.56,63
1030.02,59.9091
1030.48,61.7273
1030.94,64.4545
1031.4,60.6364
1031.86,64.8182
1032.33,66.4545
1032.79,64.8182
1033.25,66.8182
1033.71,64.0909
1034.17,68.2727
1034.63,68.8182
1035.09,65.5455
1035.55,66.4545
1036.01,68.2727
1036.47,70.8182
1036.93,66.2727
1037.39,68.2727
1037.85,70.6364
1038.31,69.1818
1038.77,68.0909
1039.23,70.6364
1039.7,66.0909
1040.16,70.2727
1040.62,70.4545
1041.08,65.1818
1041.54,72.2727
1042,71.1818
1042.46,68.4545
1042.92,72.6364
1043.38,71.5455
1043.84,72.0909
1044.3,75
1044.76,72.8182
1045.22,72.6364
1045.68,76.2727
1046.14,74.8182
1046.6,71.9091
1047.06,80.4545
1047.52,72.0909
1047.98,81.1818
1048.44,78.8182
1048.9,79.7273
1049.36,87.3636
1049.81,86.8182
1050.27,86.6364
1050.73,92.2727
1051.19,92.0909
1051.65,98.8182
1052.11,104.273
1052.57,106.818
1053.03,114.091
1053.49,116.273
1053.95,129
1054.41,129
1054.87,134.818
1055.33,141.727
1055.79,155.364
1056.24,160.455
1056.7,172.091
1057.16,177
1057.62,193
1058.08,191.182
1058.54,213
1059,223.545
1059.46,234.091
1059.92,243.182
1060.38,247.182
1060.84,264.455
1061.29,279.909
1061.75,277.182
1062.21,289.182
1062.67,308.091
1063.13,306.636
1063.59,321.727
1064.05,328.273
1064.5,341.727
1064.96,336.455
1065.42,348.818
1065.88,351.909
1066.34,359.364
1066.8,362.455
1067.25,376.091
1067.71,381.546
1068.17,372.091
1068.63,378.091
1069.09,380.273
1069.55,383.545
1070,380.818
1070.46,382.636
1070.92,379.182
1071.38,373.545
1071.83,371.364
1072.29,375
1072.75,358.818
1073.21,365.909
1073.67,364.455
1074.12,345.545
1074.58,340.273
1075.04,342.636
1075.5,327.364
1075.96,329.545
1076.41,317.909
1076.87,310.273
1077.33,307.545
1077.79,288.818
1078.24,286.818
1078.7,281.182
1079.16,275.182
1079.61,262.636
1080.07,254.818
1080.53,251.727
1080.99,243
1081.44,230.636
1081.9,231.545
1082.36,207.727
1082.81,203.545
1083.27,202.818
1083.73,192.273
1084.19,185.182
1084.64,182.455
1085.1,176.818
1085.56,161.727
1086.01,163.364
1086.47,157.364
1086.93,138.636
1087.38,137.182
1087.84,132.091
1088.3,128.818
1088.75,126.636
1089.21,116.455
1089.67,118.273
1090.12,110.455
1090.58,105.545
1091.04,102.455
1091.49,98.4545
1091.95,93.7273
1092.41,85.3636
1092.86,87.7273
1093.32,85.5454
1093.78,81.1818
1094.23,78.6364
1094.69,72.2727
1095.14,74.8182
1095.6,69.7273
1096.06,69
1096.51,65
1096.97,64.4546
1097.43,65.9091
1097.88,63.9091
1098.34,58.8182
1098.79,60.4545
1099.25,60.4545
1099.7,62.4545
1100.16,61
1100.61,59
1101.07,56.6364
1101.53,51.3636
1101.98,53.9091
1102.44,52.4545
1102.89,50.4545
1103.35,55
1103.81,53.7273
1104.26,55.3636
1104.72,54.4545
1105.17,50.0909
1105.63,49.9091
1106.08,49
1106.54,48.2727
1106.99,48.2727
1107.45,48.6364
1107.9,46.8182
1108.36,47.9091
1108.81,51.7273
1109.27,50.2727
1109.72,49.3636
1110.18,49.1818
1110.63,47.5455
1111.09,45.1818
1111.54,48.2727
1112,53.3636
1112.45,49.9091
1112.91,50.8182
1113.36,48.0909
1113.82,47.7273
1114.27,50.6364
1114.73,47.3636
1115.18,49.5455
1115.64,51.1818
1116.09,46.2727
1116.54,48.2727
1117,46.8182
1117.45,46.6364
1117.91,44.8182
1118.36,48.8182
1118.82,46.2727
1119.27,50.0909
1119.73,45.9091
1120.18,48.8182
1120.64,48.0909
1121.09,44.6364
1121.54,47.9091
1122,48.4545
1122.45,48.0909
1122.91,48.0909
1123.36,43.7273
1123.81,46.6364
1124.27,44.0909
1124.72,48.8182
1125.18,49.5455
1125.63,45.7273
1126.08,46.6364
1126.54,45.7273
1126.99,45.3636
1127.44,48.2727
1127.9,43.3636
1128.35,45.7273
1128.8,50.0909
1129.26,48.6364
1129.71,46.2727
1130.17,47.3636
1130.62,48.0909
1131.07,47.1818
1131.53,45.5455
1131.98,47.3636
1132.43,45.7273
1132.89,46.0909
1133.34,45.1818
1133.79,47.1818
1134.25,46.4545
1134.7,46.4545
1135.15,46.8182
1135.61,42.8182
1136.06,44.8182
1136.51,40.8182
1136.96,47.5455
1137.42,45.3636
1137.87,45.9091
1138.32,45
1138.78,46.6364
1139.23,46.6364
1139.68,41
1140.13,43
1140.59,46.4545
1141.04,44.6364
1141.49,43.9091
1141.95,44.6364
1142.4,42.6364
1142.85,43.3636
1143.3,43.1818
1143.76,43
1144.21,43.5455
1144.66,45.5455
1145.11,45.9091
1145.57,45
1146.02,40.0909
1146.47,43
1146.92,47.1818
1147.38,43
1147.83,42.2727
1148.28,46.0909
1148.73,45.3636
1149.18,43.1818
1149.64,41.5455
1150.09,44.2727
1150.54,41.7273
1150.99,44.2727
1151.44,45.7273
1151.89,44.2727
1152.35,43.9091
1152.8,48.6364
1153.25,45.5455
1153.7,43.1818
1154.16,43.3636
1154.61,42.6364
1155.06,41.3636
1155.51,42.6364
1155.96,43.9091
1156.41,41.3636
1156.86,44.4545
1157.32,43.1818
1157.77,45.7273
1158.22,43.7273
1158.67,41.7273
1159.12,45.1818
1159.57,38.0909
1160.02,46.6364
1160.47,42.0909
1160.93,43.5455
1161.38,40.6364
1161.83,42.6364
1162.28,42.8182
1162.73,43.1818
1163.18,42.2727
1163.63,41.9091
1164.08,41.5455
1164.53,42.4545
1164.99,37.7273
1165.44,41.3636
1165.89,41.3636
1166.34,43.3636
1166.79,41.3636
1167.24,39.5455
1167.69,42.0909
1168.14,41.9091
1168.59,39
1169.04,41.7273
1169.49,40.0909
1169.94,43.9091
1170.39,40.6364
1170.84,39.9091
1171.29,39.9091
1171.74,41.7273
1172.2,40.8182
1172.64,37
1173.1,42.4545
1173.54,43.1818
1174,39.9091
1174.45,42.2727
1174.9,42.0909
1175.35,45.5455
1175.8,45
1176.25,40.6364
1176.7,36.8182
1177.15,40.6364
1177.6,42.6364
1178.05,40.8182
1178.5,37.9091
1178.95,39.7273
1179.39,41
1179.85,38.4545
1180.29,41.9091
1180.75,41.1818
1181.19,40.2727
1181.64,39.7273
1182.09,37.7273
1182.54,43
1182.99,44.2727
1183.44,39.7273
1183.89,38.4545
1184.34,40.8182
1184.79,41.3636
1185.24,42.4545
1185.69,40.2727
1186.14,35.5455
1186.59,39
1187.04,41.5455
1187.49,39.1818
1187.94,41.7273
1188.38,42.8182
1188.83,37.5455
1189.28,38.6364
1189.73,37.7273
1190.18,40.4545
1190.63,35
1191.08,38.8182
1191.53,39.3636
1191.98,42.0909
1192.42,39.9091
1192.87,41.7273
1193.32,41.3636
1193.77,39.3636
1194.22,36.8182
1194.67,42.4545
1195.12,41.5455
1195.57,41.5455
1196.02,37.3636
1196.46,41.7273
1196.91,38.0909
1197.36,38.0909
1197.81,37.7273
1198.26,39.9091
1198.7,41
1199.15,39.5455
1199.6,39.3636
1200.05,37.9091
1200.5,38.0909
1200.95,39.3636
1201.4,39.7273
1201.84,39.5455
1202.29,39
1202.74,37.7273
1203.19,42.2727
1203.63,38.0909
1204.08,38.0909
1204.53,37.1818
1204.98,40.2727
1205.43,38.0909
1205.87,35.9091
1206.32,40.2727
1206.77,39.9091
1207.22,37
1207.66,39.3636
1208.11,37
1208.56,38.0909
1209.01,38.4545
1209.45,41
1209.9,39
1210.35,35
1210.8,41.9091
1211.25,38.4545
1211.69,39
1212.14,35.1818
1212.59,41
1213.03,39.7273
1213.48,39
1213.93,40.0909
1214.38,39.7273
1214.82,40.8182
1215.27,36.4545
1215.72,36.0909
1216.16,41.5454
1216.61,40.4545
1217.06,37.1818
1217.5,39.3636
1217.95,38.4545
1218.4,38.2727
1218.84,39.3636
1219.29,37.9091
1219.74,39.7273
1220.19,41.5455
1220.63,39.3636
1221.08,35.7273
1221.53,41
1221.97,39.1818
1222.42,40.4545
1222.86,39.9091
1223.31,38.8182
1223.76,37.9091
1224.2,37
1224.65,35.1818
1225.1,41.3636
1225.54,35.9091
1225.99,42.2727
1226.44,35.9091
1226.88,36.4545
1227.33,38.2727
1227.77,37.1818
1228.22,43
1228.67,38.6364
1229.11,36.8182
1229.56,37.9091
1230,40.0909
1230.45,38.0909
1230.9,35.9091
1231.34,37.7273
1231.79,40.6364
1232.23,38.4545
1232.68,39.9091
1233.12,39.7273
1233.57,41
1234.02,38.2727
1234.46,38.8182
1234.91,42.4545
1235.35,38.8182
1235.8,38.4545
1236.24,41
1236.69,40.8182
1237.13,41.9091
1237.58,37.1818
1238.02,42.6364
1238.47,39
1238.92,39.5455
1239.36,39.9091
1239.81,39.9091
1240.25,38.8182
1240.7,41.5455
1241.14,39.9091
1241.59,43.1818
1242.03,41.5455
1242.48,38.6364
1242.92,39.1818
1243.37,42.0909
1243.81,41.3636
1244.26,43.5455
1244.7,41.9091
1245.15,41.5455
1245.59,44.6364
1246.04,39.5455
1246.48,43.3636
1246.92,44.8182
1247.37,45.7273
1247.82,41.9091
1248.26,43.7273
1248.7,45.7273
1249.15,47.3636
1249.59,47.7273
