Raman_Shift,Intensity
cm^-^1,a.u.
50.3192,180.737
50.8445,175.786
51.372,169.362
51.8995,166.465
52.4248,161.199
52.9522,160.143
53.4774,155.193
54.0047,155.821
54.532,162.187
55.0572,159.289
55.5844,156.497
56.1116,163.336
56.6367,163.28
57.1639,171.593
57.6889,174.853
58.216,182.955
58.743,191.584
59.2679,203.634
59.7949,205.525
60.3198,204.68
60.8467,199.625
61.3715,200.885
61.8984,196.198
62.4253,199.826
62.95,201.613
63.4768,205.347
64.0014,208.028
64.5282,211.025
65.0527,216.759
65.5794,221.019
66.104,230.174
66.6306,234.645
67.155,241.589
67.6816,239.849
68.206,240.741
68.7325,242.37
69.2569,240.893
69.7833,249.1
70.3076,253.834
70.834,259.884
71.3582,249.46
71.8845,250.667
72.4087,239.875
72.935,235.609
73.4591,241.185
73.9832,242.129
74.5094,246.179
75.0334,247.65
75.5595,239.752
76.0835,226.17
76.6095,219.22
77.1334,203.585
77.6573,204.951
78.1833,206.105
78.7071,207.418
79.2309,211.205
79.7568,203.57
80.2805,210.146
80.8063,213.669
81.33,224.14
81.8536,233.19
82.3794,241.503
82.9029,245.658
83.4265,237.97
83.9521,228.441
84.4756,213.859
84.9991,212.014
85.5247,212.38
86.0481,210.534
86.5714,205.584
87.0969,202.476
87.6202,201.736
88.1435,201.891
88.6689,197.678
89.1921,205.885
89.7153,214.672
90.2385,215.3
90.7638,217.455
91.2869,218.557
91.81,208.712
92.333,203.762
92.8582,205.022
93.3811,201.282
93.9041,212.648
94.427,208.224
94.9521,205.221
95.475,199.586
95.9978,199.478
96.5206,195.685
97.0455,194.577
97.5683,196.785
98.091,196.624
98.6137,201.042
99.1364,201.197
99.6612,194.194
100.184,194.717
100.706,191.872
101.229,188.448
101.751,190.024
102.274,189.232
102.799,182.492
103.321,190.489
103.843,184.696
104.366,189.957
104.888,194.006
105.41,201.266
105.933,203.158
106.455,207.313
106.979,203.521
107.502,195.886
108.024,187.831
108.546,183.67
109.068,179.614
109.59,178.085
110.112,177.556
110.634,175.974
111.156,179.392
111.678,182.231
112.2,181.859
112.722,189.804
113.246,186.169
113.768,193.166
114.29,202.847
114.811,203.055
115.333,205.526
115.855,198.996
116.377,203.309
116.898,204.096
117.42,200.882
117.942,201.511
118.463,197.982
118.985,196.242
119.506,198.133
120.028,196.815
120.549,200.338
121.071,195.493
121.592,205.332
122.113,207.592
122.635,206.063
123.154,203.955
123.675,203.741
124.197,202.896
124.718,198.893
125.239,200.732
125.76,201.308
126.281,206.779
126.802,207.829
127.324,210.352
127.845,211.717
128.366,215.609
128.887,221.396
129.406,221.393
129.926,221.442
130.447,227.597
130.968,225.542
131.489,229.749
132.01,232.115
132.531,231.164
133.052,236.214
133.57,237.527
134.091,241.05
134.612,241.837
135.132,248.307
135.653,252.094
136.173,257.67
136.692,265.088
137.212,273.401
137.733,282.345
138.253,289.605
138.774,302.444
139.292,310.81
139.813,313.702
140.333,321.751
140.853,334.59
141.372,336.114
141.892,355.69
142.412,370.371
142.932,391.315
143.45,409.102
143.971,432.415
144.491,455.885
145.011,495.409
145.529,534.143
146.049,559.245
146.569,622.242
147.087,674.292
147.607,742.657
148.127,818.707
148.646,917.651
149.164,1045.44
149.684,1186.54
150.204,1371.85
150.722,1602.64
151.241,1876.48
151.761,2202.58
152.279,2584.42
152.798,2991.36
153.318,3404.05
153.835,3760.94
154.355,4013.83
154.872,4128.25
155.392,4040.72
155.911,3821.03
156.429,3475.92
156.948,3038.5
157.468,2632.39
157.985,2261.44
158.504,1924.96
159.022,1645.8
159.541,1412.59
160.058,1239.69
160.577,1081.85
161.096,968.474
161.613,853.314
162.133,776.574
162.65,695.097
163.169,647.41
163.686,581.459
164.205,542.667
164.722,513.612
165.241,483.187
165.757,452.184
166.276,427.076
166.793,408.336
167.312,386.649
167.829,370.33
168.347,354.327
168.864,347.43
169.383,338.637
169.9,325.424
170.418,316.263
170.935,301.786
171.453,295.941
171.97,296.412
172.488,280.988
173.005,280.459
173.523,272.35
174.04,267.926
174.556,264.608
175.075,262.762
175.591,253.233
176.109,252.283
176.625,245.175
177.144,245.277
177.66,241.274
178.176,241.692
178.694,239.005
179.21,231.581
179.726,230.894
180.245,226.996
180.761,227.624
181.279,220.937
181.795,223.408
182.311,222.616
182.829,215.455
183.344,214.504
183.86,217.396
184.378,212.604
184.894,211.864
185.41,212.177
185.927,207.279
186.443,205.644
186.959,204.062
187.474,204.481
187.992,199.32
188.508,196.843
189.023,199.84
189.541,197.1
190.056,198.624
190.572,191.831
191.087,195.618
191.605,190.509
192.12,196.401
192.635,190.398
193.151,192.764
193.668,188.919
194.183,191.705
194.699,193.702
195.214,189.91
195.729,188.538
196.246,192.535
196.761,187.216
197.277,187.74
197.792,186.368
198.307,189.944
198.824,188.362
199.339,188.623
199.854,189.199
200.369,187.459
200.883,186.929
201.398,189.084
201.915,188.397
202.43,188.289
202.945,191.286
203.46,186.704
203.974,190.648
204.489,191.698
205.004,190.169
205.518,186.745
206.033,189.373
206.549,190.844
207.064,188.157
207.579,192.049
208.093,192.519
208.607,191.569
209.122,193.461
209.636,194.089
210.151,191.402
210.665,191.083
211.179,195.554
211.694,192.446
212.208,194.653
212.722,195.756
213.236,198.069
213.751,196.066
214.265,196.01
214.779,199.954
215.293,203.162
215.807,197.633
216.321,199.524
216.835,197.732
217.349,196.939
217.863,197.937
218.377,199.355
218.891,197.036
219.405,202.349
219.918,197.504
220.432,198.343
220.946,196.129
221.46,203.074
221.973,199.123
222.487,201.489
223.001,204.644
223.514,203.377
224.028,202.953
224.542,202.845
225.053,201.579
225.567,204.155
226.08,204.942
226.593,209.886
227.107,208.936
227.62,205.985
228.134,210.403
228.647,211.137
229.16,211.555
229.672,210.658
230.185,212.181
230.698,219.809
231.211,216.175
231.724,218.277
232.238,222.432
232.749,226.271
233.262,230.321
233.775,227.318
234.288,229.157
234.801,233.944
235.312,228.888
235.825,238.78
236.338,231.356
236.85,239.195
237.363,242.139
237.874,243.82
238.387,243.239
238.9,246.762
239.412,246.917
239.923,248.651
240.436,249.858
240.948,262.961
241.461,256.484
241.972,265.323
242.484,269.109
242.997,270.633
243.507,276.051
244.02,276.679
244.532,283.045
245.045,288.516
245.555,289.46
246.067,295.72
246.58,292.823
247.09,305.556
247.602,309.395
248.114,321.129
248.625,324.705
249.137,330.123
249.647,336.699
250.159,337.381
250.671,348.009
251.181,354.69
251.693,365.109
252.205,370
252.715,379.208
253.227,390.468
253.737,402.254
254.249,410.988
254.761,422.406
255.271,439.667
255.783,451.979
256.292,468.766
256.804,474.184
257.314,498.076
257.825,503.336
258.337,522.228
258.847,540.067
259.358,560.274
259.868,578.956
260.379,603.005
260.889,616.16
261.401,629.105
261.91,663.523
262.421,687.73
262.931,709.99
263.442,734.882
263.951,770.3
264.463,799.034
264.972,830.136
265.483,858.028
265.993,903.552
266.504,938.654
267.013,982.861
267.524,1037.6
268.033,1084.86
268.542,1152.59
269.053,1217.32
269.562,1288.58
270.074,1357.21
270.582,1436.79
271.093,1516.63
271.602,1623.52
272.111,1736.04
272.622,1862.57
273.131,2010.72
273.642,2159.72
274.151,2343.24
274.659,2536.24
275.17,2757.13
275.679,3023.76
276.187,3325.02
276.698,3644.8
277.207,4006.64
277.717,4433.9
278.226,4865.48
278.734,5313.32
279.245,5754
279.753,6197.58
280.262,6575.21
280.77,6850.41
281.28,7023.88
281.789,7063.51
282.297,6960.3
282.807,6669.09
283.316,6306.87
283.824,5851.66
284.332,5354.5
284.842,4850.28
285.35,4341.12
285.858,3892.44
286.369,3490.49
286.877,3098.22
287.385,2760.27
287.893,2476.95
288.401,2238.1
288.911,2033.1
289.419,1836.63
289.926,1672.67
290.434,1519.3
290.944,1398.14
291.452,1303.98
291.96,1192.29
292.467,1114.55
292.975,1027.55
293.483,959.864
293.993,906.283
294.5,848.543
295.008,789.54
295.515,749.642
296.023,699.165
296.53,672.215
297.04,646.791
297.548,605.104
298.055,588.101
298.562,571.045
299.07,534.042
299.577,515.934
300.084,504.615
300.592,480.244
301.099,464.03
301.606,445.922
302.115,432.182
302.623,425.548
303.13,411.071
303.637,393.121
304.144,385.276
304.651,375.852
305.158,362.27
305.665,350.372
306.172,349.685
306.679,340.892
307.186,334.574
307.693,330.15
308.2,322.568
308.707,305.302
309.213,305.825
309.72,296.296
310.227,289.029
310.734,286.395
311.24,281.497
311.747,275.494
312.254,273.333
312.76,263.857
313.267,262.012
313.774,257.219
314.28,251.479
314.787,252.161
315.293,248.315
315.8,249.102
316.306,242.625
316.81,241.149
317.317,235.935
317.823,232.985
318.329,230.14
318.836,231.979
319.342,224.397
319.848,225.447
320.354,218.601
320.861,219.862
321.367,215.543
321.871,215.961
322.377,214.169
322.883,210.902
323.389,209.478
323.895,204.791
324.401,203.999
324.905,201.733
325.411,201.309
325.917,203.095
326.422,204.145
326.928,196.721
327.434,192.981
327.938,197.399
328.444,188.607
328.949,194.025
329.455,186.601
329.959,188.808
330.464,186.331
330.97,184.802
331.476,181.326
331.981,184.901
332.485,181.793
332.99,181.843
333.496,184.156
333.999,177.416
334.504,177.15
335.01,176.147
335.515,176.565
336.018,176.72
336.524,173.822
337.029,172.609
337.532,172.448
338.037,173.445
338.543,170.179
339.048,169.755
339.551,168.436
340.056,168.801
340.561,163.746
341.064,170.269
341.569,166.529
342.072,167.737
342.577,167.102
343.082,162.941
343.585,169.307
344.09,164.462
344.595,162.932
345.098,163.456
345.602,163.032
346.105,162.66
346.61,163.447
347.115,159.97
347.617,161.388
348.122,152.333
348.624,162.224
349.129,159.695
349.632,164.376
350.136,162.847
350.641,162.897
351.143,158.209
351.648,162.364
352.15,157.73
352.655,156.358
353.157,162.566
353.661,162.037
354.164,158.455
354.668,161.61
355.17,159.607
355.674,159.077
356.176,159.443
356.681,156.966
357.183,157.437
357.687,156.75
358.189,153.22
358.693,153.375
359.195,155.214
359.697,156.738
360.201,155.156
360.703,156.258
361.207,154.36
361.709,155.357
362.213,155.565
362.715,154.93
363.216,153.085
363.72,156.503
364.222,150.553
364.726,148.129
365.227,150.968
365.729,149.702
366.233,146.752
366.734,150.854
367.236,147.535
367.74,147.48
368.241,152.056
368.745,149
369.246,148.208
369.748,148.415
370.251,146.675
370.752,148.093
371.254,152.038
371.755,148.666
372.258,147.611
372.76,147.397
373.261,148.236
373.764,147.76
374.265,148.125
374.767,149.175
375.27,149.751
375.771,148.011
376.272,146.798
376.773,146.058
377.276,145.739
377.777,144.473
378.278,144.417
378.779,141.362
379.282,142.359
379.783,145.566
380.284,139.616
380.785,144.455
381.285,145.189
381.788,141.607
382.289,144.92
382.79,138.969
383.29,142.44
383.791,139.7
384.292,139.908
384.794,134.642
385.295,139.27
385.796,137.425
386.296,139.475
386.797,132.946
387.297,136.258
387.8,135.097
388.3,137.252
388.8,135.513
389.301,136.562
389.801,134.033
390.301,136.293
390.802,134.659
391.302,132.235
391.802,137.074
392.302,133.018
392.805,136.12
393.305,131.433
393.805,131.746
394.305,128.954
394.805,132.477
395.305,128.79
395.805,134.313
396.305,130.468
396.805,129.991
397.305,131.199
397.805,132.038
398.305,132.403
398.805,129.979
399.304,131.924
399.804,131.342
400.304,130.234
400.804,130.389
401.303,130.807
401.803,124.488
402.303,130.064
402.802,128.587
403.302,132.11
403.802,131.897
404.301,127.789
404.801,129.681
405.3,128.046
405.8,129.306
406.297,130.145
406.796,129.721
407.296,129.771
407.795,128.505
408.295,129.028
408.794,128.13
409.293,127.443
409.792,128.44
410.292,127.7
410.791,125.276
411.288,125.905
411.787,128.797
412.286,127.583
412.785,130.791
413.284,126.209
413.783,125.153
414.282,127.677
414.779,128.305
415.278,126.197
415.777,128.615
416.276,128.559
416.775,130.241
417.272,130.185
417.771,126.972
418.269,130.758
418.768,129.492
419.267,129.463
419.764,127.486
420.262,127.536
420.761,126.691
421.26,124.319
421.756,123.895
422.255,128.313
422.753,127.837
423.252,126.57
423.748,129.831
424.247,127.249
424.745,128.456
425.241,125.716
425.74,126.713
426.238,128.605
426.734,128.971
427.233,125.073
427.731,125.438
428.229,125.909
428.725,126.38
429.224,124.061
429.722,126.426
430.218,126.213
430.716,127.052
431.212,125.786
431.71,124.941
432.208,124.569
432.704,128.83
433.202,126.353
433.7,126.455
434.196,129.031
434.694,127.712
435.19,127.499
435.688,125.549
436.185,124.177
436.681,124.701
437.179,125.698
437.674,125.063
438.172,125.007
438.668,123.899
439.165,125.212
439.661,122.262
440.159,125.943
440.656,123.782
441.152,124.621
441.649,123.934
442.145,124.773
442.642,127.717
443.138,124.872
443.635,122.922
444.13,123.656
444.628,124.969
445.123,124.65
445.618,125.436
446.116,124.486
446.611,124.852
447.108,122.27
447.603,124.214
448.1,124.053
448.595,123.682
449.092,122.468
449.588,119.571
450.085,122.252
450.58,124.038
451.075,122.088
451.572,124.401
452.066,123.661
452.563,120.342
453.058,121.55
453.553,123.652
454.05,123.175
454.545,119.225
455.039,122.485
455.536,120.061
456.031,119.953
456.526,119.582
457.022,122.631
457.517,119.681
458.011,122.467
458.508,117.57
459.003,120.409
459.497,120.406
459.994,122.613
460.488,118.716
460.983,120.239
461.479,122.71
461.973,120.286
462.468,118.23
462.962,116.49
463.458,117.856
463.953,117.221
464.447,120.06
464.943,118.794
465.437,119.633
465.931,115.999
466.426,118.259
466.92,119.098
467.416,119.306
467.91,116.882
468.404,119.931
468.898,119.244
469.392,119.557
469.888,117.817
470.382,119.13
470.876,118.127
471.37,120.492
471.863,118.752
472.359,115.486
472.853,118.483
473.347,120.954
473.841,118.214
474.334,118.053
474.828,120.84
475.322,117.363
475.817,117.623
476.311,119.989
476.804,117.196
477.298,117.141
477.792,116.296
478.285,112.398
478.778,116.553
479.272,118.181
479.765,116.126
480.259,116.965
480.752,113.699
481.247,118.012
481.741,116.693
482.234,116.69
482.727,113.95
483.221,116.789
483.714,118.26
484.207,116.889
484.7,115.991
485.193,113.567
485.686,116.195
486.179,118.087
486.672,117.611
487.165,116.45
487.658,116.341
488.151,115.286
488.644,118.809
489.137,113.964
489.63,114.014
490.123,118.116
490.616,116.587
491.106,115.373
491.599,115.37
492.092,117.209
492.585,120.364
493.077,117.098
493.57,118.306
494.063,114.776
494.555,118.984
495.048,117.77
495.541,116.189
496.033,117.396
496.524,117.867
497.016,119.811
497.508,118.177
498.001,117.858
498.493,115.118
498.986,120.747
499.478,119.533
499.968,118.951
500.461,116.527
500.953,114.735
501.445,121.837
501.937,120.676
502.43,119.2
502.92,119.407
503.412,117.141
503.904,121.77
504.396,117.872
504.888,117.658
505.378,121.813
505.87,118.073
506.362,119.439
506.854,117.699
507.344,117.854
507.836,118.64
508.328,119.953
508.82,120.424
509.309,120.263
509.801,121.313
510.293,117.994
510.783,117.675
511.274,122.199
511.766,120.775
512.258,115.719
512.747,116.4
513.239,120.976
513.73,119.447
514.22,120.339
514.711,122.651
515.203,120.333
515.692,123.014
516.184,120.949
516.675,119.512
517.165,119.204
517.656,120.925
518.145,118.237
518.637,120.175
519.128,120.025
519.617,118.478
520.108,116.988
520.598,119.233
521.089,117.343
521.58,121.696
522.069,121.578
522.56,119.274
523.049,122.457
523.54,119.481
524.029,120.663
524.52,120.578
525.011,117.957
525.5,120.25
525.991,119.158
526.48,119.278
526.971,117.964
527.46,121.178
527.951,119.4
528.439,118.402
528.93,119.878
529.419,118.453
529.909,119.338
530.398,117.097
530.889,118.991
531.377,118.692
531.868,120.17
532.357,119.12
532.845,117.635
533.336,117.181
533.824,118.798
534.315,115.024
534.803,116.808
535.293,117.869
535.782,118.238
536.27,120.771
536.76,117.157
537.249,117.723
537.739,117.471
538.227,116.438
538.715,120.344
539.206,120.475
539.694,116.465
540.182,118.287
540.672,118.13
541.16,116.12
541.648,114.746
542.138,114.935
542.626,116.906
543.114,115.857
543.604,116.302
544.092,115.756
544.58,118.371
545.07,117.227
545.558,117.379
546.046,116.635
546.535,114.021
547.023,115.426
547.511,115.039
547.999,114.535
548.488,115.718
548.976,114.248
549.464,116.249
549.951,114.87
550.441,114.403
550.928,117.096
551.416,114.531
551.903,115.878
552.393,114.924
552.88,114.072
553.368,114.003
553.855,115.767
554.343,115.206
554.832,113.074
555.319,114.404
555.807,111.06
556.294,115.139
556.781,112.646
557.268,114.124
557.758,112.233
558.245,113.486
558.732,113.699
559.219,112.761
559.706,112.816
560.193,112.292
560.68,113.199
561.167,115.133
561.654,111.99
562.143,112.013
562.63,111.553
563.117,112.396
563.604,111.882
564.091,111.186
564.577,113.64
565.064,113.06
565.214,112.332
565.707,110.381
566.2,110.692
566.691,109.846
567.184,110.158
567.676,110.101
568.169,110.781
568.662,110.935
569.152,110.089
569.645,115.032
570.138,112.291
570.63,110.708
571.121,108.546
571.613,111.91
572.106,111.275
572.598,109.797
573.089,111.056
573.581,108.789
574.073,109.258
574.564,109.254
575.056,110.776
575.548,109.772
576.039,111.768
576.531,113.606
577.023,108.97
577.515,112.229
578.006,109.225
578.498,110.484
578.99,108.217
579.48,111.266
579.972,111.84
580.462,108.257
580.954,112.674
581.446,112.933
581.936,109.719
582.428,111.083
582.92,109.5
583.41,110.654
583.902,108.544
584.391,106.961
584.883,109.536
585.375,110.269
585.865,110.265
586.357,109.05
586.846,110.73
587.338,114.463
587.83,112.88
588.319,109.771
588.811,111.03
589.3,114.078
589.792,110.179
590.281,114.07
590.773,109.434
591.262,113.377
591.754,108.794
592.243,109.106
592.735,112.049
593.224,111.414
593.715,111.304
594.205,113.037
594.696,107.717
595.185,111.081
595.676,110.288
596.165,110.442
596.657,109.174
597.146,109.697
597.637,113.219
598.126,109.741
598.617,112.105
599.106,111.943
599.597,108.623
600.086,110.356
600.575,111.036
601.066,114.243
601.555,111.081
602.046,111.445
602.535,113.704
603.023,111.016
603.514,111.485
604.003,111.85
604.494,111.372
604.982,113.631
605.471,108.732
605.962,111.096
606.45,109.829
606.939,108.562
607.43,112.505
607.918,113.133
608.407,113.234
608.897,111.335
609.386,106.752
609.874,111.011
610.365,109.849
610.853,111.529
611.341,111.42
611.832,114.363
612.32,107.201
612.808,109.302
613.299,112.824
613.787,111.61
614.275,112.553
614.763,112.97
615.253,112.597
615.742,113.119
616.23,110.747
616.718,109.901
617.208,108.581
617.696,110.84
618.184,109.941
618.672,110.621
619.162,108.564
619.65,108.192
620.138,105.714
620.625,108.605
621.113,111.811
621.603,111.491
622.091,109.961
622.579,113.115
623.066,107.953
623.554,108.264
624.042,109.155
624.531,110.73
625.019,110.726
625.507,111.985
625.994,110.665
626.482,111.503
626.969,109.499
627.459,106.284
627.946,112.543
628.434,112.644
628.921,109.43
629.409,110.057
629.896,110.158
630.383,109.154
630.871,107.571
631.358,108.567
631.845,106.984
632.334,107.98
632.822,109.028
633.309,110.182
633.796,106.073
634.283,111.279
634.77,108.433
635.257,109.902
635.744,109.214
636.231,107.526
636.718,108.048
637.205,107.781
637.692,107.987
638.179,109.825
638.666,106.19
639.153,107.764
639.64,107.444
640.127,111.282
640.614,106.12
641.1,107.853
641.587,107.375
642.074,108.161
642.56,108.315
643.047,104.889
643.534,107.885
644.02,106.723
644.507,106.456
644.994,103.347
645.48,106.027
645.965,107.233
646.451,106.492
646.938,108.435
647.424,108.01
647.91,106.954
648.397,108.844
648.883,106.472
649.369,105.783
649.856,107.621
650.34,105.354
650.826,104.35
651.312,107.767
651.799,104.815
652.285,108.338
652.771,104.176
653.257,105.329
653.741,106.799
654.227,105.479
654.713,106.58
655.199,106.471
655.685,109.467
656.171,108.305
656.655,108.037
657.141,107.033
657.627,104.187
658.113,105.499
658.599,107.337
659.082,107.017
659.568,107.697
660.054,104.588
660.54,106.478
661.023,110.685
661.509,107.628
661.995,104.466
662.48,109.62
662.964,106.721
663.45,106.98
663.935,107.45
664.419,104.235
664.904,106.126
665.39,104.332
665.875,104.696
666.358,107.903
666.844,104.004
667.329,107.684
667.812,108.048
668.298,105.886
668.783,108.935
669.266,107.036
669.752,107.769
670.237,105.817
670.72,106.655
671.205,107.651
671.69,106.963
672.173,107.432
672.658,109.323
673.141,107.424
673.626,105.262
674.112,108.363
674.594,106.78
675.079,109.145
675.562,111.246
676.047,106.452
676.532,111.237
677.015,107.075
677.5,108.703
677.983,107.33
678.467,109.326
678.95,112.954
679.435,115.265
679.919,109.209
680.402,114.205
680.887,111.516
681.369,111.565
681.854,111.929
682.337,111.451
682.821,112.447
683.304,111.654
683.788,108.965
684.271,114.751
684.755,114.22
685.237,111.058
685.722,113.317
686.204,113.155
686.688,114.73
687.171,116.884
687.653,118.354
688.137,115.139
688.619,114.714
689.104,120.815
689.586,116.863
690.07,118.07
690.552,122.276
691.034,116.377
691.518,120.426
692,125.527
692.484,128.681
692.966,125.098
693.448,130.936
693.932,129.774
694.414,127.664
694.898,132.134
695.38,133.446
695.862,128.915
696.346,132.911
696.827,133.17
697.309,136.166
697.793,141.952
698.275,144.211
698.756,145.943
699.24,150.781
699.721,149.935
700.203,155.773
700.687,158.979
701.168,162.87
701.65,167.129
702.131,174.125
702.615,179.595
703.096,189.433
703.578,202.586
704.061,211.056
704.542,216.789
705.024,240.89
705.505,260.675
705.988,286.776
706.47,325.614
706.951,370.347
707.432,428.027
707.913,509.76
708.396,628.229
708.878,803.068
709.359,1066.59
709.84,1448.27
710.321,1998.37
710.804,2633.26
711.285,3264.2
711.766,3685.1
712.247,3686.25
712.728,3346.25
713.211,2732.92
713.692,2074.24
714.173,1511.29
714.653,1111.23
715.134,832.593
715.615,647.642
716.096,525.006
716.576,439.739
717.059,381.156
717.54,332.73
718.021,305.095
718.501,274.091
718.982,249.508
719.462,233.924
719.943,223.499
720.423,209.022
720.904,199.702
721.384,184.698
721.865,180.22
722.345,172.268
722.828,172.948
723.308,163.471
723.788,162.151
724.269,158.726
724.749,151.037
725.229,150.665
725.71,148.661
726.19,142.288
726.67,142.916
727.15,139.122
727.63,137.697
728.11,136.008
728.591,137.268
729.071,135.737
729.551,133.365
730.031,130.36
730.511,129.777
730.989,128.089
731.469,130.085
731.949,128.818
732.428,127.498
732.908,125.546
733.388,129.279
733.868,126.749
734.348,123.902
734.828,122.583
735.307,123.473
735.787,126.311
736.267,124.518
736.746,120.198
737.224,120.667
737.704,121.716
738.183,120.87
738.663,122.339
739.142,121.282
739.622,120.384
740.101,120.485
740.579,119.165
741.058,121.319
741.538,118.051
742.017,122.363
742.496,122.254
742.976,117.986
743.453,118.298
743.932,120.557
744.411,114.448
744.891,118.97
745.37,117.071
745.847,120.225
746.326,115.8
746.805,117.48
747.285,116.002
747.762,117.524
748.241,117.836
748.72,118.2
749.199,117.038
749.676,118.771
750.155,120.293
750.634,117.605
751.112,118.232
751.589,115.544
752.068,116.803
752.547,116.799
753.024,120.216
753.503,114.212
753.981,115.945
754.458,119.783
754.937,116.515
755.415,115.932
755.892,117.033
756.371,119.292
756.849,115.762
757.326,116.232
757.805,115.122
758.283,117.644
758.76,114.693
759.238,116.531
759.714,121.369
760.193,120.417
760.671,118.887
761.148,119.567
761.626,115.826
762.102,115.927
762.581,119.555
763.059,120.287
763.535,117.073
764.013,114.595
764.49,118.065
764.968,119.376
765.444,120.162
765.922,117.842
766.4,118.996
766.876,119.728
767.354,119.724
767.83,118.878
768.308,121.453
768.784,117.87
769.262,119.708
769.738,119.546
770.216,121.91
770.692,120.853
771.17,120.849
771.646,119.635
772.123,122.157
772.599,122.047
773.075,123.412
773.553,119.513
774.028,121.298
774.506,120.61
774.982,120.132
775.459,123.602
775.935,120.492
776.412,121.962
776.888,122.695
777.363,122.954
777.841,121.686
778.316,118.946
778.794,123.362
779.269,123.358
779.745,121.512
780.222,123.719
780.697,125.135
781.173,125.289
781.65,123.022
782.125,127.176
782.602,124.172
783.078,122.957
783.553,125.321
784.03,122.475
784.505,121.734
784.98,121.309
785.455,122.726
785.932,123.669
786.408,124.981
786.883,124.293
787.359,125.025
787.834,124.705
788.309,124.122
788.784,122.434
789.261,123.167
789.736,121.373
790.211,121.422
790.688,121.365
791.163,122.045
791.637,123.357
792.112,124.247
792.587,123.717
793.063,124.239
793.538,124.34
794.013,124.284
794.487,125.174
794.964,124.749
795.439,124.377
795.913,119.53
796.388,123.789
796.862,124.733
797.337,123.044
797.813,122.882
798.287,123.352
798.762,125.348
799.236,120.87
799.711,121.129
800.185,119.336
800.659,123.226
801.135,119.696
801.61,124.744
802.084,120.793
802.558,121.525
803.032,123.311
803.506,122.359
803.981,117.987
804.455,125.825
804.929,124.189
805.403,123.659
805.879,122.339
806.353,124.493
806.827,122.541
807.301,122.011
807.775,120.27
808.249,123.003
808.722,126.998
809.196,120.626
809.67,123.043
810.144,123.407
810.618,125.771
811.091,121.083
811.565,123.237
812.039,123.759
812.513,123.229
812.986,124.014
813.46,124.536
813.933,126.637
814.407,124.528
814.88,121.103
815.354,122.257
815.828,121.779
816.301,124.827
816.774,122.876
817.246,121.924
817.719,121.657
818.193,123.6
818.666,124.07
819.139,123.75
819.613,123.43
820.086,126.584
820.559,121.896
821.032,122.892
821.506,119.361
821.977,120.199
822.45,127.353
822.923,123.244
823.396,122.555
823.869,123.92
824.342,122.337
824.815,121.069
825.286,120.17
825.759,120.219
826.232,123.478
826.705,120.948
827.178,123.101
827.651,121.624
828.122,123.304
828.595,123.773
829.068,125.19
829.54,118.712
830.011,123.392
830.484,121.073
830.956,122.332
831.429,118.222
831.902,123.902
832.372,122.004
832.845,124.999
833.318,120.258
833.788,121.202
834.261,122.092
834.733,122.457
835.206,120.137
835.676,121.764
836.149,124.707
836.621,121.177
837.091,120.278
837.564,118.906
838.036,120.902
838.506,118.529
838.979,121.683
839.451,121.205
839.921,119.411
840.393,119.618
840.866,116.719
841.336,120.452
841.808,121.5
842.28,120.865
842.75,120.334
843.222,121.12
843.692,120.642
844.164,120.111
844.636,119.212
845.106,119.945
845.578,121.31
846.048,120.516
846.52,120.828
846.992,121.192
847.462,122.188
847.934,118.552
848.403,122.232
848.875,117.965
849.345,118.803
849.817,121.957
850.286,117.742
850.758,117.422
851.228,119.892
851.699,116.888
852.169,115.463
852.641,119.406
853.11,120.086
853.582,114.608
854.051,120.183
854.523,120.6
854.992,122.385
855.464,118.697
855.933,120.43
856.404,119.899
856.874,119.053
857.345,117.259
857.814,119.097
858.286,119.357
858.755,117.3
859.224,122.033
859.695,121.186
860.164,116.551
860.636,118.441
861.105,119.542
861.574,116.696
862.045,119.376
862.514,117.951
862.985,119.947
863.454,119.364
863.923,116.834
864.394,117.461
864.863,118.457
865.332,120.453
865.803,116.343
866.272,118.655
866.741,115.283
867.211,117.384
867.68,116.959
868.149,113.428
868.62,117.635
869.088,116.63
869.557,116.205
870.026,116.885
870.496,114.987
870.965,117.298
871.434,115.505
871.904,119.185
872.373,118.444
872.841,119.913
873.31,117.172
873.78,117.958
874.249,118.112
874.717,118.423
875.186,118.63
875.654,118.626
876.124,117.253
876.593,115.091
877.061,118.245
877.529,120.925
877.998,117.395
878.468,115.601
878.936,112.965
879.404,115.803
879.872,116.062
880.341,117.163
880.809,116.896
881.279,116.208
881.747,118.151
882.215,117.147
882.683,118.301
883.151,111.77
883.619,114.661
884.087,116.815
884.555,114.337
885.025,114.228
885.492,115.645
885.96,116.798
886.428,117.057
886.896,118.632
887.364,115.786
887.831,119.887
888.299,115.83
888.767,115.668
889.235,120.401
889.702,114.66
890.17,116.972
890.638,118.02
891.105,119.279
891.573,117.96
892.04,117.219
892.508,117.583
892.975,117.368
893.443,118.101
893.91,118.307
894.378,116.83
894.845,118.405
895.312,118.558
895.78,117.87
896.247,119.603
896.714,121.809
897.181,121.489
897.649,117.643
898.116,120.165
898.583,117.898
899.05,117.104
899.517,116.732
899.985,118.517
900.452,119.618
900.917,120.667
901.384,118.768
901.851,120.606
902.318,120.444
902.785,118.019
903.252,119.12
903.719,122.484
904.186,121.217
904.652,118.002
905.117,120.419
905.584,119.942
906.051,118.516
906.518,121.144
906.985,117.14
907.451,115.241
907.916,117.816
908.383,118.443
908.849,118.965
909.316,122.33
909.783,119.641
910.247,119.006
910.714,122.002
911.18,118.419
911.647,118.993
912.111,121.779
912.578,118.933
913.044,119.928
913.511,117.451
913.975,120.236
914.442,121.758
914.908,120.544
915.374,119.224
915.839,121.325
916.305,120.268
916.771,121.001
917.235,123.26
917.702,121.519
918.168,118.357
918.632,121.142
919.098,118.138
919.564,123.187
920.028,121.025
920.494,119.231
920.96,124.069
921.424,122.907
921.89,119.745
922.356,119.267
922.82,121.579
923.286,119.891
923.752,124.202
924.216,125.304
924.682,120.826
925.146,122.032
925.611,120.765
926.075,120.761
926.541,122.336
927.007,126.279
927.47,120.327
927.936,124.587
928.4,122.477
928.865,122.736
929.329,120.89
929.795,123.675
930.258,121.408
930.724,122.299
931.189,123.295
931.653,121.501
932.118,125.286
932.582,124.598
933.047,122.436
933.51,120.906
933.976,121.27
934.439,124.424
934.903,124.262
935.368,122.152
935.831,125.148
936.296,119.513
936.76,121.456
937.225,122.873
937.688,126.027
938.153,121.128
938.616,121.282
939.079,123.698
939.545,121.852
940.008,121.48
940.473,119.633
940.936,122.945
941.399,120.099
941.864,123.042
942.327,123.67
942.792,126.297
943.254,123.872
943.717,124.921
944.182,120.495
944.645,122.333
945.108,126.066
945.573,126.483
946.035,121.111
946.498,124.843
946.963,121.734
947.425,121.94
947.888,119.357
948.353,122.985
948.815,123.981
949.278,122.713
949.742,122.972
950.205,121.758
950.668,120.49
951.13,121.907
951.595,122.324
952.057,119.531
952.519,119.474
952.982,120.365
953.446,120.255
953.909,123.567
954.371,118.668
954.833,121.454
955.296,122.344
955.76,123.393
956.222,119.704
956.684,123.542
957.146,121.127
957.609,123.25
958.073,120.007
958.535,122.603
958.997,123.338
959.459,120.438
959.921,120.492
960.383,118.27
960.847,119.449
961.309,121.551
961.771,120.431
962.233,119.553
962.695,123.163
963.157,120.065
963.619,118.855
964.08,118.058
964.542,121.237
965.006,121.67
965.468,120.655
965.93,119.636
966.391,120.164
966.853,122.411
967.315,117.645
967.776,119.192
968.238,116.911
968.699,119.291
969.161,120.411
969.623,118.128
970.084,119.051
970.546,120.247
971.007,119.325
971.469,119.841
971.93,119.126
972.391,118.226
972.853,117.977
973.314,117.407
973.776,119.34
974.237,118.674
974.698,120.993
975.159,118.301
975.621,119.409
976.082,118.528
976.543,117.046
977.004,119.628
977.465,119.629
977.926,120.126
978.386,118.6
978.847,117.678
979.308,117.204
979.769,116.367
980.23,120.338
980.691,118.584
981.152,119.236
981.613,120.368
982.074,120.36
982.533,121.02
982.993,118.98
983.454,121.889
983.915,122.88
984.376,122.341
984.837,121.116
985.295,120.984
985.756,123.129
986.217,121.35
986.677,123.632
987.138,121.98
987.599,122.523
988.057,126.229
988.518,123.856
988.979,124.663
989.439,125.864
989.898,126.63
990.358,125.714
990.819,126.581
991.279,128.14
991.737,125.283
992.198,125.804
992.658,126.622
993.119,125.898
993.577,129.394
994.037,128.512
994.497,126.676
994.956,130.481
995.416,128.301
995.876,128.129
996.334,130.261
996.795,133.797
997.255,134.955
997.713,132.673
998.173,131.905
998.633,134.067
999.091,136.466
999.551,136.884
1000.01,135.989
1000.47,135.891
1000.93,135.442
1001.39,134.465
1001.85,136.114
1002.31,133.624
1002.76,136.175
1003.22,137.195
1003.68,135.075
1004.14,138.218
1004.6,138.192
1004.76,137.131
1005.23,135.232
1005.69,142.385
1006.15,141.433
1006.62,142.955
1007.08,145.793
1007.55,144.157
1008.01,145.099
1008.47,147.99
1008.94,148.617
1009.4,148.612
1009.87,144.818
1010.33,150.077
1010.79,150.336
1011.26,150.226
1011.72,153.906
1012.18,153.269
1012.65,154.896
1013.11,157.997
1013.58,154.887
1014.04,157.357
1014.5,154.615
1014.97,164.611
1015.43,159.29
1015.89,162.602
1016.36,170.86
1016.82,164.593
1017.28,170.009
1017.75,170.426
1018.21,166
1018.67,164.469
1019.14,160.254
1019.6,161.934
1020.06,158.14
1020.53,158.504
1020.99,150.868
1021.45,153.285
1021.92,153.806
1022.38,149.854
1022.84,153.692
1023.31,152.898
1023.77,153.63
1024.23,154.942
1024.69,149.884
1025.16,154.301
1025.62,154.56
1026.08,151.345
1026.55,151.393
1027.01,146.125
1027.47,148.857
1027.93,153.011
1028.4,154.691
1028.86,153.739
1029.32,147.787
1029.78,149.782
1030.24,149.515
1030.71,148.563
1031.17,148.927
1031.63,151.396
1032.09,147.339
1032.56,149.334
1033.02,144.33
1033.48,147.273
1033.94,144.847
1034.41,147.158
1034.87,146.206
1035.33,146.36
1035.79,147.46
1036.25,146.614
1036.72,141.82
1037.18,145.5
1037.64,147.074
1038.1,142.333
1038.56,146.223
1039.02,143.166
1039.49,141.898
1039.95,146.578
1040.41,141.994
1040.87,141.043
1041.33,139.985
1041.79,146.928
1042.25,146.24
1042.72,143.024
1043.18,147.967
1043.64,144.121
1044.1,143.8
1044.56,144.217
1045.02,147.791
1045.49,145.84
1045.95,147.993
1046.41,144.778
1046.87,143.879
1047.33,145.032
1047.79,144.449
1048.25,147.76
1048.71,146.387
1049.17,148.119
1049.64,149.325
1050.1,149.479
1050.56,148.843
1051.02,148.049
1051.48,148.623
1051.94,153.197
1052.4,153.825
1052.86,151.82
1053.32,152.658
1053.78,156.443
1054.24,153.227
1054.7,154.96
1055.16,155.008
1055.62,160.582
1056.09,159.367
1056.55,157.363
1057.01,163.569
1057.47,160.617
1057.93,166.455
1058.39,161.976
1058.85,170.182
1059.31,169.652
1059.77,172.121
1060.23,169.327
1060.69,172.796
1061.15,174.949
1061.61,183.366
1062.07,187.94
1062.53,198.199
1062.99,201.51
1063.45,216.927
1063.91,237.343
1064.37,266.97
1064.83,319.334
1065.29,376.435
1065.75,441.22
1066.21,470.005
1066.67,453.843
1067.13,407.154
1067.59,353.518
1068.05,308.882
1068.5,278.982
1068.96,263.031
1069.42,258.605
1069.88,256.39
1070.34,265.596
1070.8,263.118
1071.26,272.903
1071.72,279.425
1072.18,290.736
1072.64,300.31
1073.1,316.253
1073.56,332.617
1074.02,353.086
1074.48,381.713
1074.93,411.919
1075.39,439.704
1075.85,482.016
1076.31,502.748
1076.77,536.743
1077.23,556.792
1077.69,599.682
1078.15,648.519
1078.61,727.199
1079.06,815.931
1079.52,929.874
1079.98,1066.92
1080.44,1255.76
1080.9,1489.07
1081.36,1825.7
1081.82,2264.75
1082.27,2937.85
1082.73,3959.21
1083.19,5604.94
1083.65,8504.83
1084.11,13446.4
1084.57,20894.6
1085.03,30328.9
1085.48,38981.4
1085.94,42855.1
1086.4,39582.9
1086.86,31023.2
1087.32,21045.7
1087.77,13032.7
1088.23,7929.16
1088.69,5041.47
1089.15,3457.31
1089.61,2529.04
1090.06,1946.72
1090.52,1562.98
1090.98,1292.6
1091.44,1089.34
1091.9,932.174
1092.35,805.38
1092.81,718.691
1093.27,643.792
1093.73,581.734
1094.18,525.362
1094.64,487.094
1095.1,444.195
1095.56,419.506
1096.01,392.291
1096.47,363.918
1096.93,345.703
1097.39,320.33
1097.84,305.115
1098.3,294.005
1098.76,280.685
1099.22,270.207
1099.67,264.571
1100.13,251.303
1100.59,242.141
1101.04,240.557
1101.5,228.605
1101.96,225.548
1102.42,217.912
1102.87,209.855
1103.33,209.956
1103.79,204.056
1104.24,198.841
1104.7,199.889
1105.16,194.253
1105.61,191.986
1106.07,187.139
1106.53,182.556
1106.98,180.551
1107.44,179.705
1107.9,173.7
1108.35,176.169
1108.81,172.007
1109.27,176.686
1109.72,168.05
1110.18,166.467
1110.64,167.147
1111.09,165.721
1111.55,166.348
1112.01,162.344
1112.46,158.286
1112.92,156.177
1113.37,158.014
1113.83,156.01
1114.29,155.163
1114.74,159.422
1115.2,153.575
1115.65,151.571
1116.11,155.987
1116.57,155.246
1117.02,150.083
1117.48,150.711
1117.93,148.759
1118.39,147.228
1118.84,144.329
1119.3,148.482
1119.76,146.425
1120.21,148.262
1120.67,147.89
1121.12,146.096
1121.58,144.881
1122.03,141.35
1122.49,141.924
1122.95,145.446
1123.4,143.757
1123.86,144.384
1124.31,140.959
1124.77,145.165
1125.22,143.002
1125.68,138.577
1126.13,136.467
1126.59,139.199
1127.04,139.195
1127.5,139.822
1127.95,137.607
1128.41,139.023
1128.86,134.65
1129.32,134.699
1129.77,137.536
1130.23,136.216
1130.68,136.527
1131.14,135.102
1131.59,134.202
1132.05,134.303
1132.5,131.93
1132.96,131.663
1133.41,131.079
1133.87,134.338
1134.32,132.596
1134.78,130.013
1135.23,131.166
1135.69,130.635
1136.14,133.578
1136.59,131.311
1137.05,129.675
1137.5,128.407
1137.96,127.666
1138.41,128.977
1138.87,128.393
1139.32,125.178
1139.77,126.595
1140.23,128.696
1140.68,128.323
1141.14,127.634
1141.59,128.472
1142.04,127.52
1142.5,125.568
1142.95,124.669
1143.41,126.348
1143.86,124.712
1144.32,126.76
1144.77,123.545
1145.22,125.278
1145.68,123.273
1146.13,123.479
1146.58,125.685
1147.04,123.207
1147.49,125.571
1147.94,126.83
1148.4,122.141
1148.85,125.031
1149.3,120.184
1149.76,124.233
1150.21,121.439
1150.67,126.066
1151.12,121.272
1151.57,123.425
1152.02,120.999
1152.48,119.732
1152.93,125.727
1153.38,122.039
1153.84,121.087
1154.29,122.714
1154.74,122.183
1155.2,122.757
1155.65,118.963
1156.1,121.012
1156.56,119.902
1157.01,121.213
1157.46,120.735
1157.91,121.994
1158.37,118.515
1158.82,120.774
1159.27,115.875
1159.73,121.554
1160.18,119.234
1160.63,120.23
1161.08,121.172
1161.54,117.221
1161.99,117.585
1162.44,120.475
1162.89,119.102
1163.34,115.992
1163.8,117.619
1164.25,121.194
1164.7,119.242
1165.15,118.5
1165.61,120.338
1166.06,119.333
1166.51,118.118
1166.96,115.798
1167.42,120.846
1167.87,114.473
1168.32,116.469
1168.77,114.833
1169.22,113.723
1169.68,117.666
1170.13,116.924
1170.58,117.551
1171.03,117.81
1171.48,116.069
1171.94,114.327
1172.39,116.165
1172.84,116.739
1173.29,115.577
1173.74,115.73
1174.19,120.094
1174.65,114.879
1175.1,114.612
1175.55,114.765
1176,112.971
1176.45,118.44
1176.9,112.752
1177.35,114.379
1177.81,115.479
1178.26,116.896
1178.71,114.786
1179.16,117.308
1179.61,118.198
1180.06,115.299
1180.51,116.242
1180.96,113.869
1181.42,116.443
1181.87,115.755
1182.32,113.855
1182.77,114.061
1183.22,117.004
1183.67,118.368
1184.12,117.574
1184.57,116.412
1185.02,116.46
1185.47,114.192
1185.92,115.188
1186.37,115.025
1186.83,118.705
1187.28,114.332
1187.73,116.064
1188.18,112.323
1188.63,114.792
1189.08,115.051
1189.53,118.099
1189.98,116.831
1190.43,115.458
1190.88,112.454
1191.33,116.765
1191.78,112.445
1192.23,112.546
1192.68,114.488
1193.13,113.326
1193.58,113.637
1194.03,115.528
1194.48,114.944
1194.93,112.413
1195.38,117.303
1195.83,112.825
1196.28,113.189
1196.73,112.185
1197.18,113.128
1197.63,115.913
1198.08,113.54
1198.53,115.693
1198.98,113.373
1199.43,116.842
1199.88,116.101
1200.33,114.57
1200.78,111.828
1201.23,110.929
1201.68,115.135
1202.13,114.131
1202.58,114.758
1203.03,112.964
1203.48,113.801
1203.92,114.007
1204.37,113.582
1204.82,113.525
1205.27,114.467
1205.72,112.673
1206.17,115.985
1206.62,117.401
1207.07,111.292
1207.52,115.287
1207.97,113.125
1208.42,113.489
1208.87,114.747
1209.31,117.216
1209.76,115.317
1210.21,115.47
1210.66,112.15
1211.11,113.461
1211.56,114.404
1212.01,112.979
1212.46,114.448
1212.91,113.601
1213.35,111.492
1213.8,112.961
1214.25,111.904
1214.7,113.636
1215.15,111.895
1215.6,112.627
1216.04,113.043
1216.49,115.881
1216.94,111.455
1217.39,108.714
1217.84,109.762
1218.29,113.337
1218.74,114.016
1219.18,112.486
1219.63,115.955
1220.08,110.898
1220.53,111.998
1220.98,115.941
1221.42,113.621
1221.87,116.143
1222.32,113.138
1222.77,113.923
1223.22,118.287
1223.66,112.862
1224.11,111.804
1224.56,112.379
1225.01,110.69
1225.45,111.212
1225.9,110.523
1226.35,112.94
1226.8,114.251
1227.25,112.983
1227.69,114.137
1228.14,113.238
1228.59,111.233
1229.04,113.123
1229.48,111.435
1229.93,111.009
1230.38,113.952
1230.83,109.737
1231.27,114.101
1231.72,110.412
1232.17,110.565
1232.61,108.561
1233.06,112.083
1233.51,113.973
1233.96,114.547
1234.4,113.28
1234.85,113.275
1235.3,111.007
1235.74,111.529
1236.19,113.63
1236.64,113.099
1237.09,112.253
1237.53,110.985
1237.98,114.77
1238.43,113.502
1238.87,110.498
1239.32,112.02
1239.76,110.331
1240.21,110.432
1240.66,114.217
1241.11,110.475
1241.55,113.208
1242,110.94
1242.44,113.567
1242.89,113.036
1243.34,112.4
1243.78,112.448
1244.23,113.917
1244.68,112.544
1245.12,110.645
1245.57,113.641
1246.01,109.005
1246.46,113.632
1246.91,115.732
1247.35,114.149
1247.8,111.934
1248.25,114.561
1248.69,112.609
1249.14,109.762
1249.58,112.074
1250.03,113.227
1250.48,113.433
1250.92,112.955
1251.37,112.003
1251.81,114.525
1252.26,113.573
1252.71,112.674
1253.15,115.09
1253.6,111.454
1254.04,115.239
1254.49,111.866
1254.93,113.967
1255.38,112.173
1255.82,116.484
1256.27,111.743
1256.71,112.949
1257.16,113.366
1257.6,112.203
1258.05,110.778
1258.5,108.878
1258.94,114.453
1259.39,115.343
1259.83,114.023
1260.28,113.913
1260.72,111.856
1261.17,111.588
1261.61,114.794
1262.06,116.158
1262.5,112.048
1262.95,112.36
1263.39,112.197
1263.84,115.087
1264.28,114.03
1264.72,113.499
1265.17,114.126
1265.62,113.332
1266.06,115.275
1266.5,111.797
1266.95,110.108
1267.39,113.683
1267.84,113.468
1268.28,115.2
1268.73,113.196
1269.17,114.612
1269.62,115.397
1270.06,113.182
1270.51,111.283
1270.95,114.541
1271.39,114.8
1271.84,112.164
1272.28,117.265
1272.73,112.471
1273.17,114.151
1273.61,114.199
1274.06,110.563
1274.5,114.611
1274.95,112.501
1275.39,113.233
1275.83,113.86
1276.28,114.803
1276.72,113.957
1277.17,113.899
1277.61,114.842
1278.05,113.785
1278.5,111.307
1278.94,112.408
1279.39,113.087
1279.83,112.714
1280.27,115.657
1280.72,113.442
1281.16,113.806
1281.6,112.118
1282.05,113.692
1282.49,115.161
1282.93,115.893
1283.38,115.731
1283.82,114.2
1284.26,115.406
1284.71,115.086
1285.15,115.976
1285.59,110.761
1286.04,111.599
1286.48,116.226
1286.92,110.853
1287.37,114.006
1287.81,112.16
1288.25,113.471
1288.69,113.151
1289.14,113.093
1289.58,113.352
1290.02,112.611
1290.47,115.343
1290.91,114.654
1291.35,113.703
1291.79,113.172
1292.24,116.378
1292.68,112.847
1293.12,111.737
1293.56,111.206
1294.01,114.886
1294.45,114.303
1294.89,115.456
1295.33,113.294
1295.78,111.973
1296.22,115.285
1296.66,114.859
1297.1,116.118
1297.55,112.85
1297.99,113.372
1298.43,114.104
1298.87,116.731
1299.32,114.885
1299.76,114.88
1300.2,116.297
1300.64,112.871
1301.08,114.814
1301.53,115.441
1301.97,117.068
1302.41,109.695
1302.85,116.691
1303.29,112.528
1303.74,115.103
1304.18,114.256
1304.62,115.83
1305.06,118.3
1305.5,113.4
1305.94,115.291
1306.39,116.233
1306.83,115.755
1307.27,115.645
1307.71,115.273
1308.15,113.847
1308.59,114.474
1309.04,114.206
1309.48,116.36
1309.92,117.408
1310.36,113.403
1310.8,113.82
1311.24,111.763
1311.68,114.811
1312.13,117.964
1312.57,117.276
1313.01,115.429
1313.45,116.635
1313.89,114.63
1314.33,118.626
1314.77,116.043
1315.21,112.827
1315.65,115.455
1316.09,116.555
1316.54,115.024
1316.98,112.388
1317.42,118.121
1317.86,113.695
1318.3,117.375
1318.74,112.265
1319.18,116.208
1319.62,116.782
1320.06,118.252
1320.5,113.668
1320.94,117.4
1321.38,113.606
1321.82,115.339
1322.26,112.545
1322.7,116.33
1323.14,116.641
1323.58,116.742
1324.02,114.527
1324.47,116.996
1324.91,114.044
1325.34,112.355
1325.79,116.614
1326.23,115.452
1326.67,113.079
1327.11,114.39
1327.55,115.859
1327.99,111.907
1328.43,115.534
1328.87,114.214
1329.31,115.683
1329.75,114.1
1330.19,113.516
1330.63,115.143
1331.06,113.507
1331.5,116.24
1331.95,120.288
1332.38,112.546
1332.82,115.437
1333.26,115.801
1333.7,114.059
1334.14,115.739
1334.58,113.84
1335.02,111.993
1335.46,112.62
1335.9,112.563
1336.34,115.716
1336.78,116.607
1337.22,113.286
1337.66,111.808
1338.1,118.54
1338.54,115.589
1338.98,118.163
1339.41,115.316
1339.85,119.259
1340.29,114.307
1340.73,115.198
1341.17,114.877
1341.61,113.873
1342.05,116.079
1342.49,116.916
1342.93,115.017
1343.37,113.539
1343.8,119.429
1344.24,114.53
1344.68,117.525
1345.12,118.416
1345.56,117.832
1346,115.459
1346.44,116.192
1346.87,116.766
1347.31,116.025
1347.75,118.073
1348.19,112.858
1348.63,114.801
1349.07,115.428
1349.51,118.634
1349.94,113.734
1350.38,118.993
1350.82,116.673
1351.26,117.563
1351.7,116.506
1352.13,115.291
1352.57,114.707
1353.01,117.861
1353.45,116.488
1353.89,115.168
1354.33,117.005
1354.76,114.316
1355.2,119.417
1355.64,119.465
1356.08,120.198
1356.52,119.298
1356.95,117.504
1357.39,116.447
1357.83,119.495
1358.27,120.333
1358.7,116.118
1359.14,118.377
1359.58,118.162
1360.02,118.999
1360.46,120.258
1360.89,115.938
1361.33,116.091
1361.77,116.771
1362.2,118.819
1362.64,116.077
1363.08,119.336
1363.52,118.226
1363.95,119.274
1364.39,116.744
1364.83,120.792
1365.27,117.366
1365.7,120.046
1366.14,119.989
1366.58,119.984
1367.01,120.506
1367.45,119.765
1367.89,120.339
1368.33,119.124
1368.76,120.593
1369.2,119.431
1369.64,119.005
1370.07,119.001
1370.51,120.523
1370.95,117.097
1371.38,119.198
1371.82,118.141
1372.26,116.873
1372.69,122.711
1373.13,116.653
1373.57,121.776
1374,120.063
1374.44,118.897
1374.87,120.077
1375.31,119.225
1375.75,121.539
1376.18,120.319
1376.62,119.89
1377.06,119.243
1377.49,120.117
1377.93,119.672
1378.37,120.989
1378.8,119.406
1379.24,117.253
1379.67,117.297
1380.11,120.04
1380.55,117.679
1380.98,120.753
1381.42,121.046
1381.85,119.071
1382.29,118.951
1382.73,118.494
1383.16,120.849
1383.6,117.225
1384.03,120.195
1384.47,119.876
1384.91,119.158
1385.34,119.297
1385.78,119.839
1386.21,120.595
1386.65,118.585
1387.08,120.3
1387.52,119.68
1387.95,121.111
1388.39,119.016
1388.82,120.037
1389.26,120.677
1389.7,122.229
1390.13,119.093
1390.57,120.859
1391,120.749
1391.44,121.519
1391.87,121.302
1392.31,122.539
1392.74,119.648
1393.18,122.714
1393.61,121.973
1394.05,121.086
1394.48,120.691
1394.92,121.405
1395.35,120.791
1395.79,122.093
1396.22,121.481
1396.66,122.976
1397.09,123.691
1397.53,122.625
1397.96,123.734
1398.4,124.664
1398.83,124.344
1399.26,124.991
1399.7,125.089
1400.13,123.132
1400.57,124.412
1401,123.311
1401.44,123.053
1401.87,124.821
1402.31,123.58
1402.74,123.985
1403.17,124.164
1403.61,123.544
1404.04,124.169
1404.48,124.192
1404.91,123.461
1405.35,123.824
1405.78,126.522
1406.21,127.774
1406.65,127.197
1407.08,128.345
1407.52,130.14
1407.95,131.719
1408.38,130.341
1408.82,131.034
1409.25,131.851
1409.69,130.853
1410.12,132.062
1410.55,134.549
1410.99,135.144
1411.42,135.166
1411.85,133.979
1412.29,137.716
1412.72,138.123
1413.15,137.161
1413.59,136.126
1414.02,134.279
1414.45,137.359
1414.89,136.127
1415.32,136.427
1415.76,133.429
1416.19,139.662
1416.62,140.781
1417.06,141.925
1417.49,137.089
1417.92,140.229
1418.34,140.983
1418.78,140.249
1419.21,141.357
1419.65,145.36
1420.09,143.679
1420.53,147.155
1420.97,149.684
1421.41,152.74
1421.84,150.111
1422.28,152.535
1422.72,157.801
1423.16,151.225
1423.6,158.438
1424.03,160.126
1424.47,160.76
1424.91,158.289
1425.35,159.976
1425.79,163.137
1426.22,163.245
1426.66,162.353
1427.1,172.303
1427.54,170.359
1427.97,170.572
1428.41,182.733
1428.85,186.315
1429.29,187.318
1429.73,195.005
1430.16,209.587
1430.6,221.326
1431.04,241.013
1431.48,266.701
1431.91,297.598
1432.35,343.443
1432.79,384.762
1433.22,459.344
1433.66,534.399
1434.1,612.349
1434.54,697.984
1434.97,750.197
1435.41,770.358
1435.85,743.413
1436.29,680.837
1436.72,587.209
1437.16,511.422
1437.6,439.32
1438.03,365.165
1438.47,318.641
1438.91,276.433
1439.34,250.331
1439.78,226.755
1440.22,211.442
1440.66,194.182
1441.09,185.027
1441.53,176.714
1441.97,164.348
1442.4,161.614
1442.84,156.354
1443.27,153.146
1443.71,147.57
1444.15,145.362
1444.58,143.681
1445.02,142.947
1445.46,139.634
1445.89,134.9
1446.33,133.377
1446.77,133.853
1447.2,131.54
1447.64,130.912
1448.08,135.178
1448.51,126.075
1448.95,129.92
1449.38,131.555
1449.82,127.189
1450.26,130.034
1450.69,123.879
1451.13,123.619
1451.57,131.885
1452,129.046
1452.44,123.206
1452.87,122.472
1453.31,124.633
1453.74,120.215
1454.18,123.902
1454.62,122.221
1455.05,122.645
1455.49,126.068
1455.92,125.387
1456.36,122.285
1456.79,122.498
1457.23,121.343
1457.67,120.346
1458.1,121.717
1458.54,121.246
1458.97,121.618
1459.41,122.305
1459.84,123.36
1460.28,122.837
1460.71,121.208
1461.15,120.369
1461.58,122.582
1462.02,121.901
1462.45,124.167
1462.89,122.643
1463.32,123.225
1463.76,121.07
1464.19,119.652
1464.63,116.971
1465.06,119.131
1465.5,120.608
1465.93,121.137
1466.37,120.087
1466.8,119.669
1467.24,118.777
1467.67,121.833
1468.11,123.204
1468.54,119.628
1468.98,118.368
1469.41,120.95
1469.85,117.9
1470.28,122.797
1470.72,120.59
1471.15,121.382
1471.59,119.332
1472.02,120.282
1472.45,118.601
1472.89,119.762
1473.32,120.975
1473.76,123.61
1474.19,121.665
1474.63,120.142
1475.06,122.618
1475.49,122.569
1475.93,121.045
1476.36,122.837
1476.8,124.788
1477.23,119.054
1477.67,122.425
1478.1,118.217
1478.53,120.852
1478.97,120.749
1479.4,119.752
1479.83,121.913
1480.27,120.968
1480.7,120.55
1481.14,121.764
1481.57,122.714
1482,120.927
1482.44,119.141
1482.87,117.249
1483.3,120.62
1483.74,120.36
1484.17,118.573
1484.61,119.839
1485.04,118.421
1485.47,118.266
1485.91,118.585
1486.34,119.64
1486.77,116.853
1487.21,120.646
1487.64,122.228
1488.07,121.388
1488.51,121.496
1488.94,121.289
1489.37,122.397
1489.8,118.768
1490.24,118.666
1490.67,120.511
1491.1,125.303
1491.54,121.043
1491.97,122.677
1492.4,118.364
1492.84,119.367
1493.27,121.475
1493.7,119.215
1494.14,119.165
1494.57,122.958
1495,122.329
1495.43,122.384
1495.87,119.335
1496.3,120.39
1496.73,124.182
1497.16,119.501
1497.6,122.293
1498.03,121.507
1498.46,118.668
1498.89,119.881
1499.33,124.305
1499.76,121.518
1500.19,121.784
1500.62,121.103
1501.06,123.422
1501.49,123.951
1501.92,121.059
1502.35,123.535
1502.78,120.644
1503.22,119.488
1503.65,121.649
1504.08,125.336
1504.51,123.181
1504.95,118.237
1505.38,123.871
1505.81,122.979
1506.24,121.877
1506.67,124.669
1507.11,125.304
1507.54,124.096
1507.97,121.678
1508.4,124.733
1508.83,121.947
1509.26,122.581
1509.7,123.005
1510.13,120.482
1510.56,122.642
1510.99,121.487
1511.42,124.964
1511.85,121.862
1512.29,121.864
1512.72,122.973
1513.15,122.239
1513.58,126.241
1514.01,126.823
1514.44,122.563
1514.87,123.197
1515.31,124.832
1515.74,121.729
1516.17,121.732
1516.6,123.63
1517.03,125.527
1517.46,122.478
1517.89,122.481
1518.32,120.168
1518.75,122.223
1519.18,121.436
1519.62,124.755
1520.05,123.39
1520.48,125.603
1520.91,123.29
1521.34,122.661
1521.77,117.98
1522.2,120.614
1522.63,121.038
1523.06,121.936
1523.49,124.781
1523.92,122.205
1524.35,122.155
1524.79,125.316
1525.22,121.424
1525.65,121.585
1526.08,124.377
1526.51,123.432
1526.94,124.172
1527.37,124.754
1527.8,121.388
1528.23,121.918
1528.66,121.92
1529.09,124.029
1529.52,120.821
1529.95,122.35
1530.38,121.458
1530.81,121.093
1531.24,122.99
1531.67,122.73
1532.1,122.417
1532.53,124.525
1532.96,121.37
1533.39,121.584
1533.82,122.586
1534.25,121.747
1534.68,125.697
1535.11,123.174
1535.54,125.229
1535.97,118.969
1536.4,121.025
1536.83,122.291
1537.26,122.346
1537.69,118.928
1538.12,121.194
1538.55,122.618
1538.98,123.884
1539.41,122.571
1539.84,123.837
1540.27,126.471
1540.69,124.948
1541.12,124.003
1541.55,123.427
1541.98,123.167
1542.41,123.591
1542.84,127.331
1543.27,124.176
1543.7,123.6
1544.13,121.708
1544.56,123.711
1544.99,121.24
1545.41,126.611
1545.85,122.403
1546.27,121.196
1546.7,125.356
1547.13,124.991
1547.56,123.152
1547.99,123.628
1548.42,121.105
1548.85,125.95
1549.27,123.479
1549.7,124.376
1550.13,125.274
1550.56,123.909
1550.99,125.385
1551.42,123.967
1551.85,124.917
1552.28,125.867
1552.7,124.239
1553.13,128.926
1553.56,126.35
1553.99,126.458
1554.42,128.461
1554.85,128.516
1555.28,130.835
1555.7,126.995
1556.13,129.104
1556.56,125.843
1556.99,127.215
1557.42,128.27
1557.84,123.01
1558.27,124.065
1558.7,126.542
1559.13,123.808
1559.56,122.495
1559.98,123.708
1560.41,125.185
1560.84,128.714
1561.27,128.191
1561.7,123.562
1562.12,125.775
1562.55,125.831
1562.98,123.781
1563.41,124.415
1563.83,126.787
1564.26,123.526
1564.69,126.845
1565.12,123.532
1565.55,126.061
1565.97,126.064
1566.4,121.383
1566.83,126.859
1567.26,123.915
1567.68,123.918
1568.11,124.184
1568.54,126.976
1568.96,126.4
1569.39,125.719
1569.82,127.195
1570.25,125.988
1570.67,124.833
1571.1,123.73
1571.53,124.786
1571.95,124.841
1572.38,125.528
1572.81,125.478
1573.23,128.429
1573.66,126.537
1574.09,125.803
1574.52,123.542
1574.94,124.493
1575.37,125.127
1575.8,123.288
1576.22,124.554
1576.65,128.452
1577.08,127.56
1577.5,127.984
1577.93,128.986
1578.36,129.463
1578.78,128.045
1579.21,125.574
1579.64,131.366
1580.06,127.474
1580.49,129.793
1580.92,129.322
1581.34,131.115
1581.77,127.275
1582.19,127.12
1582.62,124.597
1583.05,128.863
1583.47,129.076
1583.9,127.974
1584.33,129.45
1584.75,129.243
1585.18,130.825
1585.6,127.459
1586.03,128.462
1586.46,130.412
1586.88,128.573
1587.31,131.47
1587.73,127.315
1588.16,130.318
1588.59,127.479
1589.01,127.798
1589.44,131.748
1589.86,127.014
1590.29,128.385
1590.71,130.23
1591.14,128.865
1591.57,129.657
1591.99,123.976
1592.42,128.715
1592.84,131.087
1593.27,127.879
1593.69,126.829
1594.12,126.621
1594.54,129.203
1594.97,125.101
1595.39,123.998
1595.82,127.791
1596.24,128.057
1596.67,130.06
1597.1,128.168
1597.52,126.539
1597.95,127.226
1598.37,126.808
1598.8,126.811
1599.22,122.445
1599.65,130.027
1600.07,125.714
1600.5,127.138
1600.92,126.141
1601.35,126.933
1601.77,125.515
1602.19,128.202
1602.62,123.784
1603.04,130.734
1603.47,127.79
1603.89,124.793
1604.32,124.374
1604.74,126.325
1605.17,126.696
1605.59,124.699
1606.02,126.596
1606.44,125.283
1606.87,125.339
1607.29,126.71
1607.72,128.924
1608.14,125.084
1608.56,126.929
1608.99,124.564
1609.41,125.567
1609.84,126.938
1610.26,127.362
1610.69,124.733
1611.11,127.157
1611.53,128.528
1611.96,128.584
1612.38,128.218
1612.81,128.695
1613.23,126.645
1613.65,124.964
1614.08,125.44
1614.5,124.864
1614.93,125.656
1615.35,124.712
1615.77,126.346
1616.2,126.823
1616.62,126.878
1617.04,126.302
1617.47,126.042
1617.89,127.887
1618.32,128.048
1618.74,128.209
1619.16,124.896
1619.59,127.004
1620.01,129.059
1620.43,126.483
1620.86,124.96
1621.28,127.173
1621.7,127.913
1622.13,128.916
1622.55,129.076
1622.97,127.606
1623.4,127.819
1623.82,129.664
1624.24,130.719
1624.67,126.459
1625.09,129.199
1625.51,128.938
1625.94,126.836
1626.36,124.207
1626.78,126.473
1627.2,131.003
1627.63,127.216
1628.05,126.114
1628.47,128.274
1628.9,126.277
1629.32,130.754
1629.74,127.02
1630.16,131.391
1630.59,127.025
1631.01,128.66
1631.43,127.084
1631.85,128.876
1632.28,130.879
1632.7,129.882
1633.12,127.937
1633.54,123.835
1633.97,127.364
1634.39,126.999
1634.81,124.054
1635.24,127.32
1635.66,126.586
1636.08,131.589
1636.5,131.118
1636.92,127.858
1637.35,130.755
1637.77,127.706
1638.19,128.814
1638.61,129.659
1639.03,129.135
1639.46,130.033
1639.88,129.615
1640.3,125.618
1640.72,131.199
1641.14,130.465
1641.57,127.837
1641.99,128.471
1642.41,124.053
1642.83,129.161
1643.25,129.848
1643.68,129.535
1644.1,127.064
1644.52,124.436
1644.94,128.07
1645.36,128.284
1645.78,126.181
1646.21,129.973
1646.63,126.608
1647.05,127.453
1647.47,132.14
1647.89,127.248
1648.31,125.619
1648.73,128.57
1649.16,132.046
1649.58,125.049
1650,125.999
1650.42,127.739
1650.84,126.268
1651.26,128.85
1651.68,129.274
1652.1,125.487
1652.52,128.227
1652.95,129.809
1653.37,128.285
1653.79,125.13
1654.21,123.817
1654.63,126.978
1655.05,131.928
1655.47,130.51
1655.89,126.723
1656.31,127.516
1656.73,129.045
1657.15,129.522
1657.58,128.524
1658,129.106
1658.42,123.688
1658.84,130.112
1659.26,128.167
1659.68,128.539
1660.1,126.752
1660.52,128.965
1660.94,131.284
1661.36,126.603
1661.78,125.921
1662.2,129.135
1662.62,130.138
1663.04,126.509
1663.46,127.038
1663.88,129.252
1664.3,130.465
1664.72,130.468
1665.14,129.418
1665.56,129.526
1665.98,129.897
1666.4,130.374
1666.82,128.166
1667.24,129.222
1667.66,129.383
1668.08,130.175
1668.5,127.283
1668.92,125.286
1669.34,131.183
1669.76,128.186
1670.18,128.031
1670.6,130.245
1671.02,129.616
1671.44,126.356
1671.86,128.201
1672.28,130.046
1672.7,130.68
1673.12,130.893
1673.54,129.002
1673.96,127.531
1674.38,128.586
1674.8,127.431
1675.22,129.855
1675.64,130.016
1676.06,127.545
1676.48,128.443
1676.89,126.13
1677.31,127.133
1677.73,129.399
1678.15,126.349
1678.57,125.878
1678.99,127.881
1679.41,127.042
1679.83,127.518
1680.25,130.995
1680.67,127.155
1681.09,126.316
1681.5,131.319
1681.92,131.059
1682.34,130.009
1682.76,129.117
1683.18,128.488
1683.6,124.07
1684.02,124.231
1684.44,129.602
1684.85,126.868
1685.27,124.976
1685.69,127.979
1686.11,129.351
1686.53,128.564
1686.95,127.356
1687.37,126.517
1687.78,129.52
1688.2,129.312
1688.62,126.473
1689.04,130.265
1689.46,124.9
1689.88,127.271
1690.29,130.063
1690.71,126.382
1691.13,132.543
1691.55,129.914
1691.97,125.654
1692.39,131.183
1692.8,129.554
1693.22,130.399
1693.64,130.928
1694.06,130.721
1694.48,132.408
1694.89,134.621
1695.31,135.624
1695.73,133.101
1696.15,135.998
1696.56,133.054
1696.98,133.899
1697.4,135.902
1697.82,132.273
1698.24,133.855
1698.65,130.279
1699.07,126.966
1699.49,129.968
1699.9,128.866
1700.32,128.132
1700.74,129.661
1701.16,130.559
1701.58,127.825
1701.99,128.565
1702.41,125.989
1702.83,127.412
1703.24,125.889
1703.66,127.576
1704.08,126.421
1704.5,127.792
1704.91,130.532
1705.33,125.377
1705.75,127.117
1706.16,128.646
1706.58,126.386
1707,124.967
1707.42,128.339
1707.83,129.499
1708.25,129.397
1708.67,129.137
1709.08,125.876
1709.5,125.774
1709.92,129.461
1710.33,126.622
1710.75,124.993
1711.17,129.417
1711.58,125.63
1712,127.739
1712.42,128.057
1712.84,129.218
1713.25,131.8
1713.67,131.75
1714.08,131.332
1714.5,126.177
1714.92,128.495
1715.33,132.34
1715.75,128.712
1716.17,129.609
1716.58,128.402
1717,130.352
1717.41,130.934
1717.83,132.989
1718.25,129.992
1718.66,130.363
1719.08,129.419
1719.49,130.843
1719.91,131.53
1720.33,130.48
1720.74,129.114
1721.16,131.065
1721.57,130.594
1721.99,128.439
1722.41,134.389
1722.82,131.76
1723.24,130.079
1723.65,129.924
1724.07,127.295
1724.49,129.245
1724.9,132.669
1725.32,128.199
1725.73,133.938
1726.15,129.204
1726.56,133.207
1726.98,131.052
1727.4,132.897
1727.81,131.11
1728.23,132.219
1728.64,132.537
1729.06,129.803
1729.47,133.069
1729.89,132.809
1730.3,132.917
1730.72,130.025
1731.13,132.923
1731.55,136.505
1731.96,133.402
1732.38,130.826
1732.79,136.04
1733.21,132.306
1733.62,134.677
1734.04,137.364
1734.45,135.367
1734.87,139.317
1735.28,133.53
1735.7,137.428
1736.11,137.589
1736.53,141.013
1736.94,141.858
1737.36,141.176
1737.77,143.653
1738.19,141.024
1738.6,146.027
1739.02,146.556
1739.43,151.191
1739.85,148.404
1740.26,153.091
1740.68,159.936
1741.09,164.044
1741.5,170.468
1741.92,179.839
1742.33,188.474
1742.75,199.424
1743.16,213.953
1743.58,230.009
1743.99,250.643
1744.4,272.383
1744.82,299.701
1745.23,334.441
1745.65,374.233
1746.06,402.394
1746.47,441.081
1746.89,465.242
1747.3,499.455
1747.72,516.037
1748.13,525.987
1748.54,523.99
1748.96,522.835
1749.37,495.943
1749.79,469.157
1750.2,438.265
1750.61,420.478
1751.03,389.85
1751.44,365.695
1751.85,351.908
1752.27,331.858
1752.68,311.124
1753.1,290.601
1753.51,278.077
1753.92,260.922
1754.34,249.557
1754.75,234.507
1755.16,223.878
1755.58,211.039
1755.99,207.042
1756.4,199.887
1756.82,195.679
1757.23,192.314
1757.64,183.474
1758.06,178.635
1758.47,177.48
1758.88,172.009
1759.3,170.538
1759.71,165.278
1760.12,163.649
1760.54,161.231
1760.95,156.497
1761.36,158.342
1761.77,153.661
1762.19,154.453
1762.6,152.351
1763.01,152.143
1763.42,148.83
1763.84,150.044
1764.25,145.889
1764.66,147.681
1765.08,144.579
1765.49,141.845
1765.9,141.953
1766.31,143.024
1766.73,141.408
1767.14,142.331
1767.55,138.205
1767.96,138.336
1768.38,141.155
1768.79,138.054
1769.2,140.619
1769.61,136.428
1770.03,136.817
1770.44,139.191
1770.85,135.004
1771.26,136.642
1771.67,137.683
1772.09,131.238
1772.5,135.572
1772.91,138.526
1773.32,133.89
1773.73,134.504
1774.15,137.856
1774.56,132.638
1774.97,133.242
1775.38,135.69
1775.79,136.664
1776.21,132.652
1776.62,132.133
1777.03,132.787
1777.44,131.995
1777.85,132.924
1778.27,133.158
1778.68,132.157
1779.09,136.501
1779.5,132.798
1779.91,132.797
1780.32,131.474
1780.73,133.037
1781.15,132.087
1781.56,131.87
1781.97,133.616
1782.38,133.807
1782.79,131.806
1783.2,133.026
1783.61,131.532
1784.03,132.484
1784.44,133.645
1784.85,133.729
1785.26,129.493
1785.67,131.587
1786.08,132.341
1786.49,132.65
1786.9,130.428
1787.31,133.446
1787.73,132.361
1788.14,135.122
1788.55,135.706
1788.96,134.546
1789.37,135.051
1789.78,132.88
1790.19,135.566
1790.6,135.862
1791.01,137.336
1791.42,137.504
1791.83,137.056
1792.24,136.382
1792.65,136.574
1793.07,137.605
1793.48,140.462
1793.89,137.642
1794.3,137.14
1794.71,138.194
1795.12,139.12
1795.53,139.467
1795.94,139.309
1796.35,139.128
1796.76,137.932
1797.17,139.146
1797.58,141.956
1797.99,140.919
1798.4,139.263
1798.81,138.587
1799.22,138.829
1799.63,138.309
1800.04,137.885
1800.45,138.965
1800.86,135.05
1801.27,135.166
1801.68,133.809
1802.09,128.575
1802.5,131.397
1802.91,131.483
1803.32,128.777
1803.73,131.946
1804.14,130.134
1804.55,130.622
1804.96,129.973
1805.37,126.334
1805.78,130.657
1806.19,131.763
1806.6,131.11
1807.01,128.801
1807.42,128.272
1807.83,127.099
1808.24,127.771
1808.65,131.808
1808.66,131.982
1809.08,127.716
1809.49,126.977
1809.91,130.132
1810.32,130.814
1810.74,124.969
1811.15,125.967
1811.56,128.754
1811.98,130.014
1812.39,125.907
1812.81,130.009
1813.22,128.586
1813.64,130.004
1814.05,128.212
1814.46,128.894
1814.88,129.997
1815.29,129.363
1815.71,126.939
1816.12,129.989
1816.53,126.987
1816.95,129.037
1817.36,124.034
1817.78,129.4
1818.19,129.608
1818.6,128.606
1819.02,129.656
1819.43,128.338
1819.84,125.809
1820.26,127.175
1820.67,127.277
1821.09,125.696
1821.5,125.904
1821.91,129.165
1822.33,126.583
1822.74,129.212
1823.15,126.578
1823.57,129.207
1823.98,127.468
1824.39,125.728
1824.81,127.621
1825.22,127.671
1825.63,133.3
1826.05,128.824
1826.46,125.663
1826.87,124.871
1827.29,123.027
1827.7,125.55
1828.11,125.495
1828.53,126.493
1828.94,128.385
1829.35,128.961
1829.77,127.748
1830.18,127.219
1830.59,128.743
1831.01,125.372
1831.42,126.633
1831.83,127.525
1832.24,129.944
1832.66,127.889
1833.07,127.202
1833.48,127.357
1833.89,127.934
1834.31,129.51
1834.72,127.665
1835.13,129.242
1835.54,128.924
1835.96,130.132
1836.37,130.076
1836.78,124.179
1837.2,128.177
1837.61,126.753
1838.02,127.593
1838.43,129.222
1838.84,127.851
1839.26,125.111
1839.67,130.688
1840.08,126.001
1840.49,126.893
1840.91,129.207
1841.32,129.994
1841.73,127.675
1842.14,123.568
1842.55,128.197
1842.97,130.352
1843.38,126.349
1843.79,129.926
1844.2,128.45
1844.61,125.868
1845.03,129.287
1845.44,126.6
1845.85,130.861
1846.26,125.7
1846.67,127.54
1847.09,126.8
1847.5,131.535
1847.91,128.69
1848.32,127.688
1848.73,126.843
1849.14,126.419
1849.55,130.154
1849.97,128.362
1850.38,125.938
1850.79,129.251
1851.2,128.986
1851.61,127.194
1852.02,127.928
1852.44,124.031
1852.85,129.607
1853.26,129.236
1853.67,125.55
1854.08,125.6
1854.49,128.597
1854.9,128.384
1855.31,127.54
1855.72,129.537
1856.14,127.798
1856.55,128.953
1856.96,128.372
1857.37,129.106
1857.78,125.314
1858.19,128.101
1858.6,127.677
1859.01,129.517
1859.42,131.304
1859.83,132.038
1860.25,129.141
1860.66,125.665
1861.07,131.715
1861.48,129.239
1861.89,130.341
1862.3,132.076
1862.71,128.073
1863.12,130.702
1863.53,131.173
1863.94,126.013
1864.35,125.063
1864.76,129.903
1865.17,129.269
1865.58,126.687
1865.99,131.474
1866.4,129.156
1866.81,129.995
1867.22,128.888
1867.64,128.569
1868.04,128.935
1868.46,128.406
1868.86,129.562
1869.28,130.243
1869.68,127.557
1870.1,129.344
1870.51,127.867
1870.92,130.549
1871.33,130.231
1871.74,130.018
1872.15,125.331
1872.56,125.592
1872.97,128.01
1873.37,127.376
1873.79,128.637
1874.19,129.634
1874.6,128.105
1875.01,132.261
1875.42,130.311
1875.83,130.729
1876.24,126.043
1876.65,128.145
1877.06,129.827
1877.47,133.088
1877.88,126.243
1878.29,130.451
1878.7,129.08
1879.11,130.025
1879.52,125.812
1879.93,128.231
1880.34,131.281
1880.75,126.857
1881.16,127.749
1881.57,127.642
1881.98,131.429
1882.38,130.794
1882.79,128.423
1883.2,129.684
1883.61,128.471
1884.02,130.363
1884.43,130.098
1884.84,131.464
1885.25,130.408
1885.66,130.827
1886.06,127.877
1886.47,129.243
1886.88,127.767
1887.29,130.659
1887.7,131.762
1888.11,129.18
1888.52,130.388
1888.93,126.491
1889.33,130.488
1889.74,129.696
1890.15,126.799
1890.56,130.586
1890.97,131.584
1891.38,128.581
1891.79,129.473
1892.19,126.418
1892.6,125.1
1893.01,127.413
1893.42,127.516
1893.83,132.355
1894.24,131.616
1894.65,127.245
1895.05,129.558
1895.46,129.398
1895.87,131.132
1896.28,130.919
1896.69,130.917
1897.09,127.02
1897.5,132.175
1897.91,130.278
1898.32,131.38
1898.73,128.694
1899.13,130.796
1899.54,130.689
1899.95,132.476
1900.36,128.263
1900.77,132.155
1901.17,131.784
1901.58,127.044
1901.99,132.358
1902.4,127.197
1902.81,128.826
1903.21,128.982
1903.62,127.716
1904.03,130.977
1904.44,132.553
1904.84,127.34
1905.25,131.39
1905.66,128.861
1906.06,127.543
1906.47,128.172
1906.88,127.275
1907.29,130.167
1907.69,131.744
1908.1,133.109
1908.51,128.633
1908.92,129.368
1909.32,127.26
1909.73,129.468
1910.14,129.149
1910.54,126.41
1910.95,128.829
1911.36,128.037
1911.77,128.824
1912.17,129.611
1912.58,128.398
1912.99,130.711
1913.39,129.129
1913.8,128.285
1914.21,130.282
1914.61,129.806
1915.02,129.593
1915.43,128.485
1915.83,127.377
1916.24,129.112
1916.65,127.057
1917.05,128.738
1917.46,127.157
1917.87,131.102
1918.27,128.099
1918.68,134.728
1919.09,127.673
1919.49,126.513
1919.9,129.352
1920.31,130.034
1920.71,128.242
1921.12,130.134
1921.52,128.342
1921.93,127.708
1922.34,128.021
1922.74,131.808
1923.15,131.648
1923.56,132.119
1923.96,133.327
1924.37,128.325
1924.78,124.954
1925.18,126.688
1925.59,126.58
1925.99,131.525
1926.4,128.996
1926.81,125.994
1927.21,129.991
1927.62,130.199
1928.02,131.776
1928.43,126.773
1928.83,128.56
1929.24,130.294
1929.65,128.45
1930.05,126.5
1930.46,128.971
1930.86,127.284
1931.27,128.703
1931.67,129.911
1932.08,129.329
1932.48,130.906
1932.89,132.903
1933.3,129.48
1933.7,128.372
1934.11,129.948
1934.51,128.525
1934.92,128.627
1935.32,130.467
1935.73,130.465
1936.13,129.409
1936.54,129.46
1936.94,127.931
1937.35,129.823
1937.75,128.662
1938.16,129.871
1938.56,127.973
1938.97,127.76
1939.37,128.916
1939.78,128.387
1940.18,130.332
1940.59,130.013
1940.99,130.116
1941.4,128.324
1941.8,127.585
1942.21,130.635
1942.61,129.106
1943.02,126.788
1943.42,128.259
1943.83,131.046
1944.23,127.675
1944.64,129.462
1945.04,128.67
1945.44,129.773
1945.85,127.191
1946.25,127.978
1946.66,129.291
1947.06,128.341
1947.47,128.549
1947.87,135.705
1948.28,126.65
1948.68,129.068
1949.08,128.96
1949.49,131.168
1949.89,129.955
1950.3,127.637
1950.7,126.582
1951.11,131.685
1951.51,130.577
1951.91,127.837
1952.32,127.572
1952.72,128.306
1953.13,128.883
1953.53,129.88
1953.93,125.088
1954.34,129.296
1954.74,127.346
1955.15,128.554
1955.55,129.131
1955.95,130.812
1956.36,128.073
1956.76,126.439
1957.17,130.173
1957.57,128.96
1957.97,130.221
1958.37,126.797
1958.78,128.795
1959.18,129.266
1959.59,127.316
1959.99,127.208
1960.39,132.995
1960.8,129.835
1961.2,131.095
1961.6,131.303
1962.01,127.406
1962.41,127.667
1962.81,129.085
1963.22,130.82
1963.62,133.554
1964.02,128.236
1964.43,127.812
1964.83,128.125
1965.23,130.228
1965.64,130.91
1966.04,127.013
1966.44,132.168
1966.84,128.113
1967.25,127.847
1967.65,129.897
1968.05,130.632
1968.46,127.945
1968.86,133.784
1969.26,128.519
1969.66,127.832
1970.07,130.25
1970.47,129.459
1970.87,127.14
1971.27,126.717
1971.68,133.398
1972.08,131.448
1972.48,129.446
1972.89,127.812
1973.29,125.757
1973.69,127.175
1974.09,128.383
1974.5,129.802
1974.9,131.852
1975.3,129.902
1975.7,130.689
1976.1,125.634
1976.51,126.842
1976.91,129.471
1977.31,129.784
1977.71,131.834
1978.12,129.2
1978.52,129.566
1978.92,129.669
1979.32,129.561
1979.72,129.295
1980.13,130.661
1980.53,133.132
1980.93,134.025
1981.33,128.548
1981.73,127.704
1982.14,130.07
1982.54,131.172
1982.94,128.591
1983.34,129.01
1983.74,126.849
1984.14,128.689
1984.55,128.634
1984.95,129.315
1985.35,130.523
1985.75,129.994
1986.15,128.781
1986.56,134.042
1986.96,130.355
1987.36,128.826
1987.76,130.455
1988.16,130.453
1988.56,132.819
1988.96,130.974
1989.37,128.656
1989.77,133.022
1990.17,129.493
1990.57,128.912
1990.97,129.804
1991.37,129.38
1991.77,129.167
1992.17,134.007
1992.57,129.583
1992.98,131.528
1993.38,129.683
1993.78,129.312
1994.18,129.784
1994.58,130.834
1994.98,129.147
1995.38,134.302
1995.78,127.931
1996.18,128.245
1996.58,124.769
1996.98,129.661
1997.39,130.869
1997.79,128.761
1998.19,128.443
1998.59,132.23
1998.99,129.122
1999.39,130.961
1999.79,131.012
2000.19,126.167
2000.59,130.217
2000.99,127.846
2001.39,131.738
2001.79,132.683
2002.19,127.786
2002.59,127.625
2002.99,130.36
2003.39,127.094
2003.79,129.723
2004.19,128.826
2004.59,127.455
2004.99,127.874
2005.39,127.818
2005.79,132.605
2006.19,130.076
2006.59,127.653
2006.99,130.124
2007.4,129.911
2007.79,128.277
2008.19,133.064
2008.59,127.851
2008.99,130.48
2009.39,126.056
2009.79,131.317
2010.19,125.788
2010.59,130.154
2010.99,129.625
2011.39,130.044
2011.79,134.515
2012.19,131.039
2012.59,129.615
2012.99,132.034
2013.39,127.61
2013.79,130.134
2014.19,124.026
2014.59,130.76
2014.99,128.916
2015.39,131.282
2015.79,130.332
2016.19,130.329
2016.59,128.327
2016.99,131.114
2017.39,129.48
2017.78,130.214
2018.18,128.106
2018.58,128.735
2018.98,131.68
2019.38,130.099
2019.78,126.728
2020.18,128.357
2020.58,131.038
2020.98,130.825
2021.38,128.77
2021.78,130.452
2022.17,130.186
2022.57,128.5
2022.97,127.602
2023.37,131.337
2023.77,127.334
2024.17,129.595
2024.57,131.697
2024.97,133.169
2025.36,127.482
2025.76,133.269
2026.16,131.582
2026.56,132.58
2026.96,128.998
2027.36,130.68
2027.76,131.835
2028.15,132.359
2028.55,130.725
2028.95,133.301
2029.35,131.404
2029.75,131.244
2030.15,133.925
2030.55,130.554
2030.94,129.762
2031.34,129.76
2031.74,131.863
2032.14,130.018
2032.54,132.7
2032.93,129.697
2033.33,131.011
2033.73,131.008
2034.13,130.742
2034.53,128.898
2034.92,132.211
2035.32,129.577
2035.72,131.732
2036.12,129.888
2036.52,128.517
2036.91,128.251
2037.31,132.196
2037.71,134.404
2038.11,128.191
2038.5,129.82
2038.9,131.133
2039.3,128.92
2039.7,128.181
2040.1,127.441
2040.49,130.649
2040.89,134.278
2041.29,131.276
2041.69,130.8
2042.08,131.218
2042.48,130.532
2042.88,129.003
2043.28,131.316
2043.67,132.471
2044.07,130.89
2044.47,130.677
2044.86,128.043
2045.26,127.724
2045.66,130.248
2046.06,131.404
2046.45,127.664
2046.85,133.083
2047.25,131.975
2047.64,130.973
2048.04,132.444
2048.44,133.862
2048.84,129.281
2049.23,130.91
2049.63,128.96
2050.03,129.115
2050.42,129.271
2050.82,128.9
2051.22,130.634
2051.61,130.263
2052.01,131.208
2052.41,128.205
2052.8,127.098
2053.2,128.253
2053.6,129.829
2053.99,131.037
2054.39,129.614
2054.79,131.875
2055.18,130.714
2055.58,130.027
2055.98,128.92
2056.37,131.18
2056.77,129.809
2057.17,130.965
2057.56,131.752
2057.96,126.591
2058.35,133.431
2058.75,130.955
2059.15,130.321
2059.54,130.16
2059.94,128.526
2060.33,131.523
2060.73,132.1
2061.13,126.045
2061.52,129.095
2061.92,130.092
2062.31,128.721
2062.71,128.193
2063.11,129.19
2063.5,129.082
2063.9,130.027
2064.29,129.446
2064.69,131.601
2065.09,129.704
2065.48,132.649
2065.88,128.857
2066.27,129.801
2066.67,131.325
2067.06,129.481
2067.46,129.531
2067.86,132.686
2068.25,128.578
2068.65,128.786
2069.04,128.1
2069.44,131.834
2069.83,132.253
2070.23,128.724
2070.62,130.405
2071.02,126.455
2071.41,132.19
2071.81,132.029
2072.2,129.448
2072.6,129.498
2073,133.759
2073.39,132.072
2073.79,130.912
2074.18,130.225
2074.58,129.17
2074.97,129.799
2075.37,127.217
2075.76,132.583
2076.16,129.686
2076.55,131.157
2076.95,128.997
2077.34,126.31
2077.74,127.202
2078.13,127.831
2078.52,130.092
2078.92,133.563
2079.31,132.297
2079.71,129.769
2080.1,131.977
2080.5,131.606
2080.89,130.656
2081.29,131.127
2081.68,130.388
2082.08,133.438
2082.47,129.382
2082.86,128.485
2083.26,132.325
2083.65,131.217
2084.05,132.215
2084.44,131.054
2084.84,130.42
2085.23,125.891
2085.63,126.941
2086.02,132.255
2086.41,128.936
2086.81,129.197
2087.2,131.194
2087.6,130.508
2087.99,132.031
2088.38,126.871
2088.78,129.132
2089.17,130.076
2089.57,128.863
2089.96,132.019
2090.35,132.437
2090.75,129.856
2091.14,130.748
2091.54,128.325
2091.93,131.164
2092.32,129.793
2092.72,131.212
2093.11,129.683
2093.5,130.733
2093.9,130.678
2094.29,130.202
2094.68,129.936
2095.08,128.933
2095.47,125.089
2095.86,128.56
2096.26,130.242
2096.65,132.871
2097.05,130.71
2097.44,133.076
2097.83,129.758
2098.23,129.545
2098.62,128.279
2099.01,131.645
2099.41,128.853
2099.8,131.377
2100.19,130.269
2100.58,131.582
2100.98,130.685
2101.37,128.946
2101.76,130.733
2102.16,134.362
2102.55,129.412
2102.94,132.041
2103.34,135.565
2103.73,131.194
2104.12,128.507
2104.51,127.294
2104.91,130.397
2105.3,132.131
2105.69,131.865
2106.09,129.179
2106.48,132.071
2106.87,133.805
2107.26,130.382
2107.66,130.327
2108.05,130.008
2108.44,134.006
2108.83,131.056
2109.23,131.474
2109.62,129.735
2110.01,132.154
2110.4,133.993
2110.8,132.833
2111.19,133.462
2111.58,132.775
2111.97,132.088
2112.37,130.77
2112.76,133.031
2113.15,131.765
2113.54,131.552
2113.93,135.181
2114.33,130.073
2114.72,129.229
2115.11,131.279
2115.5,131.96
2115.9,132.695
2116.29,133.166
2116.68,132.9
2117.07,129.74
2117.46,135.685
2117.85,131.051
2118.25,131.153
2118.64,132.203
2119.03,132.675
2119.42,131.356
2119.81,135.354
2120.2,131.72
2120.6,130.296
2120.99,132.241
2121.38,130.659
2121.77,133.815
2122.16,131.233
2122.55,135.494
2122.95,133.913
2123.34,134.963
2123.73,130.855
2124.12,134.273
2124.51,135.324
2124.9,132.584
2125.29,138.055
2125.69,133.158
2126.08,135.208
2126.47,135.364
2126.86,137.361
2127.25,138.411
2127.64,140.198
2128.03,135.617
2128.42,134.614
2128.81,135.085
2129.21,140.135
2129.6,139.343
2129.99,137.394
2130.38,140.286
2130.77,136.967
2131.16,137.86
2131.55,137.805
2131.94,137.486
2132.33,140.378
2132.72,138.113
2133.12,140.058
2133.51,137.845
2133.9,142.684
2134.29,141.787
2134.68,139.995
2135.07,145.413
2135.46,139.885
2135.85,140.198
2136.24,142.195
2136.63,144.245
2137.02,146.506
2137.41,141.714
2137.8,142.764
2138.19,147.867
2138.58,145.109
2138.97,145.068
2139.36,145.992
2139.75,144.167
2140.14,145.781
2140.53,147.063
2140.92,146.52
2141.31,145.468
2141.7,147.73
2142.09,148.588
2142.48,150.617
2142.87,148.192
2143.26,148.938
2143.65,149.821
2144.04,145.823
2144.43,148.522
2144.82,149.378
2145.21,151.145
2145.6,151.034
2145.99,151.672
2146.38,149.481
2146.77,151.565
2147.16,149.665
2147.55,153.117
2147.94,151.387
2148.33,150.901
2148.72,148.972
2149.11,151.28
2149.5,147.739
2149.89,150.655
2150.28,150.061
2150.67,149.855
2151.06,148.019
2151.45,149.746
2151.84,148.113
2152.23,147.283
2152.61,147.18
2153,147.225
2153.39,149.287
2153.78,146.327
2154.17,147.39
2154.56,145.921
2154.95,143.329
2155.34,144.281
2155.73,143.897
2156.12,143.326
2156.51,144.119
2156.9,144.103
2157.28,142.414
2157.67,143.538
2158.06,142.108
2158.45,141.871
2158.84,143.335
2159.23,142.11
2159.62,141.06
2160.01,141.812
2160.39,140.537
2160.78,139.759
2161.17,139.905
2161.56,141.722
2161.95,140.365
2162.34,139.254
2162.73,140.352
2163.11,136.826
2163.5,139.056
2163.89,139.456
2164.28,137.964
2164.67,139.044
2165.06,139.962
2165.45,136.375
2165.83,137.284
2166.22,139.153
2166.61,139.218
2167,136.634
2167.39,137.353
2167.77,135.977
2168.16,138.24
2168.55,140.754
2168.94,140.683
2169.33,141.904
2169.72,138.988
2170.1,141.086
2170.49,142.803
2170.88,143.089
2171.27,143.263
2171.65,143.718
2172.04,143.543
2172.43,142.773
2172.82,142.235
2173.21,141.771
2173.59,141.69
2173.98,142.776
2174.37,141.013
2174.76,140.082
2175.14,140.532
2175.53,140.057
2175.92,139.421
2176.31,137.992
2176.7,139.6
2177.08,137.634
2177.47,136.766
2177.86,137.155
2178.13,142.365
2178.53,134.63
2178.92,139.579
2179.31,139.687
2179.7,134.11
2180.09,137.533
2180.49,138.535
2180.88,138.852
2181.27,133.538
2181.66,137.909
2182.05,138.069
2182.45,138.913
2182.84,136.072
2183.23,136.548
2183.62,139.445
2184.02,136.762
2184.41,137.028
2184.8,137.345
2185.19,136.716
2185.58,140.086
2185.98,137.562
2186.37,135.669
2186.76,138.197
2187.15,138.567
2187.54,137.832
2187.93,141.992
2188.33,139.047
2188.72,140.47
2189.11,137.472
2189.5,137.737
2189.89,135.476
2190.28,136.109
2190.67,138.953
2191.07,137.113
2191.46,135.168
2191.85,134.538
2192.24,138.435
2192.63,136.437
2193.02,139.175
2193.42,132.861
2193.81,139.758
2194.2,138.128
2194.59,137.236
2194.98,139.132
2195.37,133.555
2195.76,134.452
2196.15,138.086
2196.55,134.666
2196.94,139.932
2197.33,133.091
2197.72,139.304
2198.11,134.937
2198.5,134.623
2198.89,135.257
2199.28,137.206
2199.67,135.892
2200.06,136.105
2200.45,134.107
2200.85,133.477
2201.24,134.9
2201.63,134.797
2202.02,136.904
2202.41,136.169
2202.8,136.539
2203.19,136.015
2203.58,135.28
2203.97,133.545
2204.36,138.495
2204.75,136.707
2205.14,136.393
2205.53,133.342
2205.92,137.186
2206.31,137.925
2206.7,136.98
2207.09,133.929
2207.48,135.773
2207.87,135.828
2208.27,138.251
2208.65,136.779
2209.05,137.939
2209.44,135.151
2209.82,132.995
2210.22,135.629
2210.61,138.315
2211,136.948
2211.39,137.477
2211.78,135.058
2212.17,136.165
2212.56,136.009
2212.95,134.8
2213.34,137.328
2213.73,136.278
2214.11,135.595
2214.51,137.229
2214.89,137.81
2215.28,135.759
2215.68,136.603
2216.06,135.71
2216.45,137.186
2216.84,136.398
2217.23,133.821
2217.62,134.981
2218.01,131.51
2218.4,136.722
2218.79,136.513
2219.18,134.726
2219.57,135.096
2219.96,134.993
2220.35,137.995
2220.74,135.997
2221.13,137.472
2221.52,131.843
2221.91,139.845
2222.3,134.268
2222.68,133.954
2223.07,135.956
2223.46,132.589
2223.85,130.802
2224.24,133.277
2224.63,135.332
2225.02,133.018
2225.41,133.441
2225.8,136.022
2226.19,136.392
2226.58,132.499
2226.96,130.659
2227.35,131.135
2227.74,134.295
2228.13,136.033
2228.52,134.667
2228.91,132.721
2229.3,133.776
2229.69,134.094
2230.07,130.833
2230.46,129.992
2230.85,132.889
2231.24,131.417
2231.63,131.998
2232.02,132.526
2232.41,130.528
2232.79,132.162
2233.18,132.059
2233.57,128.85
2233.96,134.431
2234.35,133.485
2234.74,130.593
2235.12,132.595
2235.51,129.175
2235.9,132.598
2236.29,131.495
2236.68,135.076
2237.07,130.709
2237.45,130.396
2237.84,132.134
2238.23,132.821
2238.62,130.665
2239.01,134.456
2239.39,133.563
2239.78,129.302
2240.17,132.304
2240.56,129.411
2240.95,134.676
2241.33,130.468
2241.72,130.312
2242.11,131.893
2242.5,132.579
2242.89,132.37
2243.27,131.898
2243.66,129.532
2244.05,131.323
2244.44,132.378
2244.82,128.906
2245.21,128.118
2245.6,131.331
2245.99,132.122
2246.37,131.44
2246.76,129.337
2247.15,132.286
2247.54,128.025
2247.92,130.185
2248.31,132.187
2248.7,129.504
2249.09,128.611
2249.47,129.403
2249.86,131.563
2250.25,130.196
2250.63,130.198
2251.02,129.305
2251.41,126.36
2251.8,129.204
2252.18,130.048
2252.57,127.418
2252.96,125.21
2253.34,128.317
2253.73,131.529
2254.12,128.584
2254.51,130.428
2254.89,130.483
2255.28,128.642
2255.67,132.013
2256.05,126.33
2256.44,128.227
2256.83,129.755
2257.21,129.126
2257.6,131.443
2257.99,128.235
2258.37,127.026
2258.76,129.555
2259.15,127.451
2259.53,129.137
2259.92,130.929
2260.31,127.773
2260.69,128.512
2261.08,131.198
2261.47,127.568
2261.85,130.096
2262.24,126.309
2262.62,124.89
2263.01,129.892
2263.4,127.262
2263.78,128.053
2264.17,128.371
2264.55,131.426
2264.94,126.743
2265.33,127.693
2265.71,128.274
2266.1,131.644
2266.49,131.646
2266.87,130.016
2267.26,126.544
2267.64,128.757
2268.03,129.39
2268.42,128.866
2268.8,130.342
2269.19,128.554
2269.57,128.609
2269.96,129.242
2270.34,128.507
2270.73,128.193
2271.12,128.195
2271.5,132.092
2271.89,127.199
2272.27,131.359
2272.66,127.993
2273.04,128.731
2273.43,131.47
2273.82,124.104
2274.2,128
2274.59,127.423
2274.97,129.162
2275.36,127.374
2275.74,127.429
2276.13,125.168
2276.51,127.591
2276.9,130.698
2277.28,129.805
2277.67,129.86
2278.05,129.283
2278.44,127.916
2278.82,129.392
2279.21,129.078
2279.6,130.343
2279.98,129.661
2280.36,126.505
2280.75,129.138
2281.14,127.561
2281.52,132.09
2281.91,128.828
2282.29,125.725
2282.67,130.095
2283.06,123.624
2283.45,128.626
2283.83,128.838
2284.21,129.472
2284.6,130.684
2284.98,131.318
2285.37,128.583
2285.75,129.164
2286.14,128.534
2286.52,131.694
2286.91,131.59
2287.29,130.434
2287.68,128.699
2288.06,126.122
2288.45,128.756
2288.83,128.179
2289.21,128.286
2289.6,130.762
2289.98,130.185
2290.37,132.292
2290.75,128.873
2291.14,129.612
2291.52,128.982
2291.9,130.3
2292.29,131.828
2292.67,127.777
2293.06,125.305
2293.44,131.518
2293.82,130.941
2294.21,127.785
2294.59,130.155
2294.98,130.473
2295.36,130.001
2295.74,129.687
2296.13,130.742
2296.51,130.323
2296.9,129.22
2297.28,133.274
2297.66,130.223
2298.05,131.436
2298.43,130.754
2298.82,130.808
2299.2,129.126
2299.58,128.023
2299.97,128.498
2300.35,129.184
2300.73,133.713
2301.12,130.451
2301.5,126.506
2301.88,131.403
2302.27,130.141
2302.65,130.512
2303.03,128.935
2303.42,133.252
2303.8,129.833
2304.18,127.73
2304.57,129.416
2304.95,129.892
2305.33,129.788
2305.72,128.527
2306.1,131.161
2306.48,131.005
2306.87,131.27
2307.25,128.114
2307.63,129.642
2308.02,131.276
2308.4,130.804
2308.78,130.332
2309.16,131.334
2309.55,129.125
2309.93,130.075
2310.31,128.55
2310.7,128.552
2311.08,134.659
2311.46,132.609
2311.84,128.663
2312.23,133.086
2312.61,129.036
2312.99,133.353
2313.38,128.566
2313.76,131.568
2314.14,130.517
2314.52,129.414
2314.91,133.468
2315.29,127.786
2315.67,131.735
2316.05,130.421
2316.44,132.265
2316.82,127.899
2317.2,130.901
2317.58,131.061
2317.97,127.8
2318.35,131.644
2318.73,131.067
2319.11,131.068
2319.5,126.965
2319.88,130.335
2320.26,129.706
2320.64,128.603
2321.02,130.236
2321.41,130.817
2321.79,132.029
2322.17,132.242
2322.55,126.823
2322.93,128.404
2323.32,127.984
2323.7,127.092
2324.08,132.251
2324.46,129.148
2324.84,131.729
2325.23,131.626
2325.61,133.365
2325.99,135.682
2326.37,135.263
2326.75,135.423
2327.13,133.004
2327.51,132.585
2327.9,138.534
2328.28,142.01
2328.66,143.59
2329.04,140.119
2329.42,143.015
2329.8,140.175
2330.19,135.493
2330.57,136.179
2330.95,130.023
2331.33,129.236
2331.71,125.501
2332.09,130.345
2332.47,128.873
2332.85,131.401
2333.24,131.351
2333.62,130.458
2334,128.46
2334.38,130.409
2334.76,128.042
2335.14,130.571
2335.52,129.678
2335.9,128.732
2336.28,128.945
2336.66,132.21
2337.05,130.686
2337.43,130.845
2337.81,130.847
2338.19,128.06
2338.57,127.799
2338.95,133.432
2339.33,129.434
2339.71,128.225
2340.09,128.333
2340.47,129.65
2340.85,131.494
2341.23,128.759
2341.62,132.13
2342,131.711
2342.38,130.028
2342.76,125.978
2343.14,131.664
2343.52,132.297
2343.9,132.141
2344.28,126.933
2344.66,128.83
2345.04,127.831
2345.42,129.833
2345.8,131.204
2346.18,129.153
2346.56,128.05
2346.94,129.946
2347.32,127.79
2347.7,129.529
2348.08,132.847
2348.46,129.27
2348.84,127.272
2349.22,133.695
2349.6,134.223
2349.98,130.541
2350.36,132.227
2350.74,130.176
2351.12,129.231
2351.5,129.233
2351.88,128.814
2352.26,129.605
2352.64,130.923
2353.02,133.451
2353.4,132.874
2353.78,131.35
2354.16,129.299
2354.54,131.775
2354.92,131.987
2355.3,128.831
2355.68,134.412
2356.06,131.993
2356.44,129.1
2356.82,132.997
2357.2,131.051
2357.58,131.579
2357.96,131.529
2358.33,135.478
2358.72,127.691
2359.09,133.429
2359.47,129.852
2359.85,130.117
2360.23,131.225
2360.61,130.49
2360.99,132.176
2361.37,129.072
2361.75,131.706
2362.13,131.076
2362.51,129.973
2362.89,130.501
2363.26,132.766
2363.64,125.663
2364.02,131.191
2364.4,129.088
2364.78,131.037
2365.16,130.355
2365.54,129.936
2365.92,135.78
2366.3,131.045
2366.68,129.573
2367.05,132.628
2367.43,134.735
2367.81,130.684
2368.19,131.528
2368.57,132.583
2368.95,131.795
2369.33,132.008
2369.7,130.062
2370.08,130.591
2370.46,133.066
2370.84,135.489
2371.22,130.281
2371.6,131.809
2371.98,132.863
2372.35,130.181
2372.73,131.92
2373.11,135.132
2373.49,129.555
2373.87,130.452
2374.25,135.191
2374.62,130.193
2375,131.353
2375.38,133.46
2375.76,131.146
2376.14,131.937
2376.51,134.781
2376.89,130.836
2377.27,132.364
2377.65,132.577
2378.03,134.315
2378.4,131.212
2378.78,132.267
2379.16,133.795
2379.54,131.744
2379.92,134.588
2380.29,130.011
2380.67,135.224
2381.05,133.278
2381.43,130.701
2381.8,130.019
2382.18,128.916
2382.56,130.602
2382.94,131.762
2383.31,132.5
2383.69,138.029
2384.07,132.767
2384.45,133.769
2384.83,133.929
2385.2,133.826
2385.58,132.67
2385.96,130.356
2386.33,131.989
2386.71,136.728
2387.09,133.257
2387.47,133.837
2387.84,127.576
2388.22,130.789
2388.6,133.159
2388.98,132.003
2389.35,130.9
2389.73,133.217
2390.11,136.009
2390.48,132.748
2390.86,132.381
2391.24,134.436
2391.61,133.543
2391.99,133.755
2392.37,131.599
2392.74,136.496
2393.12,132.972
2393.5,131.71
2393.88,131.923
2394.25,134.135
2394.63,132.664
2395.01,132.455
2395.38,127.246
2395.76,134.09
2396.14,135.092
2396.51,130.673
2396.89,133.149
2397.27,131.309
2397.64,134.416
2398.02,132.102
2398.39,129.314
2398.77,131.895
2399.15,132.318
2399.53,134.583
2399.9,134.691
2400.28,132.903
2400.65,130.273
2401.03,129.696
2401.41,130.277
2401.78,129.648
2402.16,134.334
2402.53,132.651
2402.91,134.285
2403.29,134.761
2403.66,133.973
2404.04,131.186
2404.42,130.924
2404.79,131.663
2405.17,131.033
2405.54,132.878
2405.92,129.037
2406.29,133.723
2406.67,134.62
2407.05,133.727
2407.42,133.098
2407.8,131.1
2408.17,130.891
2408.55,131.156
2408.93,131.369
2409.3,134.16
2409.68,130.741
2410.05,131.638
2410.43,133.903
2410.8,134.484
2411.18,132.801
2411.55,132.435
2411.93,130.068
2412.31,133.649
2412.68,134.335
2413.06,136.758
2413.43,130.287
2413.81,133.499
2414.18,135.343
2414.56,131.555
2414.93,133.821
2415.31,131.507
2415.68,130.245
2416.06,133.721
2416.43,132.091
2416.81,131.883
2417.18,131.095
2417.56,133.097
2417.93,128.047
2418.31,130.627
2418.68,131.524
2419.06,130
2419.43,136.107
2419.81,132.161
2420.18,131.637
2420.56,130.534
2420.93,132.167
2421.31,134.117
2421.68,129.487
2422.06,134.963
2422.43,131.649
2422.81,134.23
2423.18,133.284
2423.56,132.654
2423.93,134.025
2424.31,133.132
2424.68,135.713
2425.06,129.873
2425.43,131.822
2425.8,133.403
2426.18,132.721
2426.55,134.617
2426.93,133.356
2427.3,131.726
2427.68,131.676
2428.05,136.204
2428.42,133.732
2428.8,135.418
2429.17,130.262
2429.55,136.422
2429.92,134.003
2430.3,132.216
2430.67,137.323
2431.04,131.746
2431.42,134.379
2431.79,131.592
2432.17,130.225
2432.54,130.227
2432.91,129.387
2433.29,133.547
2433.66,133.759
2434.04,131.866
2434.41,133.553
2434.78,133.976
2435.16,130.504
2435.53,135.927
2435.9,131.35
2436.28,133.457
2436.65,133.827
2437.03,131.198
2437.4,132.936
2437.77,133.623
2438.15,131.993
2438.52,132.1
2438.89,129.26
2439.27,132.42
2439.64,134.527
2440.01,132.476
2440.39,129.899
2440.76,133.849
2441.13,134.272
2441.51,137.326
2441.88,133.223
2442.25,132.12
2442.63,132.016
2443,133.808
2443.37,130.599
2443.75,132.601
2444.12,132.656
2444.49,134.605
2444.87,133.186
2445.24,130.24
2445.61,133.19
2445.99,136.244
2446.36,131.193
2446.73,131.143
2447.1,134.092
2447.48,131.252
2447.85,134.833
2448.22,134.519
2448.6,132.468
2448.97,132.365
2449.34,132.209
2449.71,133.421
2450.09,134.739
2450.46,131.215
2450.83,130.585
2451.2,133.429
2451.58,133.273
2451.95,134.591
2452.32,133.856
2452.69,132.858
2453.07,131.439
2453.44,135.862
2453.81,129.653
2454.18,132.287
2454.56,131.973
2454.93,129.501
2455.3,134.608
2455.67,133.61
2456.05,132.507
2456.42,132.877
2456.79,132.195
2457.16,134.197
2457.54,133.515
2457.91,133.306
2458.28,132.255
2458.65,130.783
2459.02,131.417
2459.4,136.524
2459.77,130.263
2460.14,132.896
2460.51,130.109
2460.88,131.164
2461.26,133.376
2461.63,129.062
2462,130.59
2462.37,134.013
2462.74,134.331
2463.11,133.754
2463.49,131.335
2463.86,132.179
2464.23,131.76
2464.6,135.92
2464.97,133.974
2465.34,132.871
2465.72,131.083
2466.09,136.191
2466.46,133.982
2466.83,133.616
2467.2,133.986
2467.57,133.461
2467.95,134.99
2468.32,136.255
2468.69,132.309
2469.06,133.89
2469.43,132.997
2469.8,136.157
2470.17,135.738
2470.54,129.74
2470.92,135.321
2471.29,132.533
2471.66,133.535
2472.03,134.853
2472.4,135.118
2472.77,131.436
2473.14,135.122
2473.51,132.282
2473.88,135.178
2474.26,131.549
2474.63,131.972
2475,133.869
2475.37,132.239
2475.74,133.925
2476.11,133.927
2476.48,135.245
2476.85,135.352
2477.22,134.722
2477.59,133.829
2477.96,131.989
2478.33,134.781
2478.7,134.098
2479.07,131.574
2479.44,131.365
2479.82,131.946
2480.19,135.422
2480.56,134.108
2480.93,134.847
2481.3,136.533
2481.67,132.745
2482.04,133.063
2482.41,131.17
2482.78,134.541
2483.15,135.437
2483.52,134.229
2483.89,134.231
2484.26,132.706
2484.63,133.919
2485,131.394
2485.37,131.449
2485.74,135.135
2486.11,134.032
2486.48,131.928
2486.85,136.457
2487.22,133.143
2487.59,134.618
2487.96,133.147
2488.33,135.412
2488.7,136.624
2489.07,134.731
2489.44,134.049
2489.81,131.372
2490.18,132.362
2490.55,134.59
2490.92,133.111
2491.29,133.807
2491.66,132.629
2492.03,135.725
2492.4,132.672
2492.77,132.569
2493.14,135.717
2493.51,135.148
2493.88,134.13
2494.24,133.354
2494.61,131.354
2494.98,130.655
2495.35,134.512
2495.72,134.978
2496.09,133.146
2496.46,133.997
2496.83,134.409
2497.2,135.282
2497.57,136.051
2497.94,131.634
2498.31,132.509
2498.68,135.001
2499.05,133.764
2499.41,133.8
2499.78,132.629
2500.15,137.055
2500.52,134.025
2500.89,133.123
2501.26,131.858
2501.63,133.799
2502,133.462
2502.37,131.515
2502.74,134.147
2503.1,133.505
2503.47,133.535
2503.84,134.137
2504.21,133.798
2504.58,134.032
2504.95,129.482
2505.32,134.047
2505.69,131.852
2506.05,132.806
2506.42,132.898
2506.79,133.046
2507.16,133.285
2507.53,133.322
2507.9,131.92
2508.26,131.374
2508.63,132.73
2509,134.358
2509.37,132.547
2509.74,132.441
2510.11,134.14
2510.48,135.236
2510.84,132.395
2511.21,132.461
2511.58,132.969
2511.95,132.624
2512.32,134.533
2512.68,135.425
2513.05,135.196
2513.42,131.918
2513.79,133.723
2514.16,134.143
2514.52,133.171
2514.89,131.996
2515.26,132.901
2515.63,133.9
2516,133.778
2516.36,132.964
2516.73,130.166
2517.1,132.88
2517.47,133.802
2517.83,133.187
2518.2,132.888
2518.57,132.756
2518.94,129.414
2519.31,132.182
2519.67,131.284
2520.04,132.461
2520.41,131.811
2520.78,131.723
2521.14,134.263
2521.51,136.003
2521.88,131.77
2522.25,131.478
2522.61,132.95
2522.98,131.923
2523.35,133.062
2523.72,133.499
2524.08,131.089
2524.45,132.772
2524.82,130.874
2525.18,131.518
2525.55,130.604
2525.92,132.867
2526.29,131.301
2526.65,130.748
2527.02,131.879
2527.39,132.288
2527.75,130.368
2528.12,127.319
2528.49,130.515
2528.63,133.319
2529,129.632
2529.38,133.577
2529.75,131.838
2530.12,133.783
2530.49,131.517
2530.86,132.304
2531.23,131.144
2531.61,131.879
2531.98,132.192
2532.35,132.295
2532.72,135.029
2533.09,133.185
2533.46,129.814
2533.84,133.233
2534.21,127.967
2534.58,130.123
2534.95,131.646
2535.32,130.855
2535.69,130.694
2536.06,129.429
2536.44,130.637
2536.81,131.95
2537.18,134.843
2537.55,130.84
2537.92,128.732
2538.29,134.151
2538.66,130.938
2539.03,132.62
2539.4,129.512
2539.78,133.089
2540.15,130.297
2540.52,131.189
2540.89,130.871
2541.26,133.184
2541.63,133.866
2542,132.495
2542.37,132.861
2542.74,132.912
2543.11,130.541
2543.48,129.644
2543.85,131.694
2544.23,128.691
2544.6,130.794
2544.97,131.371
2545.34,131.421
2545.71,130.998
2546.08,128.995
2546.45,132.361
2546.82,129.727
2547.19,131.304
2547.56,129.88
2547.93,132.878
2548.3,130.718
2548.67,132.557
2549.04,131.818
2549.41,128.974
2549.78,134.076
2550.15,132.811
2550.52,133.598
2550.9,132.174
2551.26,130.225
2551.63,132.854
2552,132.009
2552.38,129.533
2552.75,135.057
2553.12,130.055
2553.49,131.052
2553.86,133.629
2554.23,130.837
2554.6,131.729
2554.97,127.674
2555.34,135.514
2555.71,132.512
2556.08,133.141
2556.44,127.665
2556.81,132.294
2557.18,132.239
2557.55,130.868
2557.93,133.813
2558.29,129.863
2558.66,131.071
2559.03,130.121
2559.4,131.751
2559.77,129.064
2560.14,133.904
2560.51,133.533
2560.88,130.478
2561.25,129.581
2561.62,129.684
2561.99,130.997
2562.36,134.468
2562.73,133.255
2563.1,130.832
2563.47,133.671
2563.84,130.774
2564.21,133.403
2564.58,131.98
2564.94,127.714
2565.31,133.028
2565.68,133.92
2566.05,132.339
2566.42,132.336
2566.79,129.597
2567.16,129.489
2567.53,126.855
2567.9,134.485
2568.27,127.009
2568.64,132.006
2569.01,133.372
2569.37,130.528
2569.74,132.052
2570.11,130.997
2570.48,133.941
2570.85,134.781
2571.22,133.463
2571.59,136.829
2571.96,130.511
2572.32,135.666
2572.69,134.716
2573.06,125.925
2573.43,134.659
2573.8,130.604
2574.17,134.075
2574.54,129.81
2574.91,127.755
2575.27,134.173
2575.64,131.855
2576.01,136.116
2576.38,127.745
2576.75,132.479
2577.12,129.372
2577.48,129.159
2577.85,134.314
2578.22,132.312
2578.59,130.573
2578.96,128.939
2579.32,136.463
2579.69,132.566
2580.06,133.721
2580.43,133.298
2580.8,130.716
2581.17,134.345
2581.53,134.185
2581.9,135.183
2582.27,130.707
2582.64,130.809
2583.01,134.807
2583.37,131.068
2583.74,133.171
2584.11,132.642
2584.48,128.376
2584.84,131.848
2585.21,130.266
2585.58,132.422
2585.95,132.209
2586.32,133.312
2586.68,128.888
2587.05,134.149
2587.42,133.778
2587.79,133.039
2588.15,131.405
2588.52,130.139
2588.89,129.189
2589.26,130.398
2589.62,129.448
2589.99,133.077
2590.36,129.864
2590.73,133.862
2591.09,130.543
2591.46,132.173
2591.83,129.328
2592.2,132.905
2592.56,131.218
2592.93,127.479
2593.3,131.003
2593.67,133.527
2594.03,130.577
2594.4,136.153
2594.77,128.783
2595.13,135.359
2595.5,131.515
2595.87,131.828
2596.23,129.72
2596.6,131.665
2596.97,130.136
2597.34,130.081
2597.7,134.395
2598.07,135.971
2598.44,131.706
2598.8,131.282
2599.17,133.754
2599.54,131.856
2599.9,133.38
2600.27,132.852
2600.64,130.744
2601,132.373
2601.37,134.476
2601.74,133.421
2602.1,131.103
2602.47,129.258
2602.84,132.098
2603.2,130.78
2603.57,129.409
2603.94,134.249
2604.3,129.404
2604.67,133.139
2605.04,131.82
2605.4,130.081
2605.77,133.815
2606.14,131.76
2606.5,133.284
2606.87,132.861
2607.23,132.595
2607.6,133.961
2607.97,129.169
2608.33,132.588
2608.7,129.323
2609.06,131.057
2609.43,135.16
2609.8,130.473
2610.16,126.629
2610.53,132.1
2610.89,129.203
2611.26,129.306
2611.63,134.356
2611.99,132.617
2612.36,133.667
2612.72,133.349
2613.09,133.241
2613.46,129.87
2613.82,130.184
2614.19,132.023
2614.55,131.495
2614.92,130.597
2615.28,134.49
2615.65,127.382
2616.02,130.801
2616.38,133.219
2616.75,134.743
2617.11,131.372
2617.48,130.686
2617.84,131.21
2618.21,130.997
2618.57,132.731
2618.94,132.939
2619.3,132.568
2619.67,132.092
2620.04,133.564
2620.4,131.667
2620.77,132.296
2621.13,130.556
2621.5,129.975
2621.86,133.446
2622.23,132.339
2622.59,131.178
2622.96,131.176
2623.32,133.963
2623.69,135.224
2624.05,133.958
2624.42,130.482
2624.78,132.848
2625.15,135.635
2625.51,133.212
2625.88,134.051
2626.24,133.996
2626.61,132.573
2626.97,129.307
2627.34,133.515
2627.7,133.882
2628.06,129.353
2628.43,133.771
2628.79,131.032
2629.16,131.819
2629.52,132.975
2629.89,134.709
2630.25,132.549
2630.62,132.441
2630.98,134.597
2631.35,133.542
2631.71,132.223
2632.08,127.747
2632.44,129.482
2632.8,132.269
2633.17,131.108
2633.53,132.369
2633.9,131.577
2634.26,127.785
2634.63,134.204
2634.99,133.991
2635.35,132.094
2635.72,130.934
2636.08,132.037
2636.45,128.561
2636.81,132.032
2637.17,131.135
2637.54,128.553
2637.9,135.077
2638.27,131.812
2638.63,131.283
2639,129.912
2639.36,131.541
2639.72,131.907
2640.09,132.115
2640.45,132.481
2640.81,128.689
2641.18,130.898
2641.54,134.316
2641.91,132.787
2642.27,134.101
2642.63,133.835
2643,132.465
2643.36,133.725
2643.72,127.039
2644.09,132.405
2644.45,132.35
2644.81,134.084
2645.18,132.503
2645.54,137.553
2645.91,133.603
2646.27,132.864
2646.63,131.019
2647,134.701
2647.36,134.225
2647.72,133.749
2648.09,136.536
2648.45,133.007
2648.81,132.794
2649.18,132.739
2649.54,130.842
2649.9,133.313
2650.26,132.311
2650.63,131.519
2650.99,130.833
2651.35,133.672
2651.72,131.986
2652.08,132.194
2652.44,131.718
2652.81,132.663
2653.17,131.239
2653.53,131.026
2653.89,132.866
2654.26,132.074
2654.62,130.019
2654.98,135.017
2655.35,128.646
2655.71,132.012
2656.07,129.957
2656.43,132.007
2656.8,133.847
2657.16,134.002
2657.52,129.158
2657.88,131.418
2658.25,133.416
2658.61,129.782
2658.97,129.148
2659.34,132.146
2659.7,136.564
2660.06,133.299
2660.42,131.823
2660.78,133.452
2661.15,132.291
2661.51,129.71
2661.87,134.129
2662.23,130.6
2662.6,131.492
2662.96,134.069
2663.32,133.593
2663.68,133.169
2664.05,133.851
2664.41,132.322
2664.77,133.741
2665.13,133.265
2665.49,136.368
2665.86,134.576
2666.22,132.205
2666.58,136.308
2666.94,131.727
2667.3,130.882
2667.67,130.511
2668.03,132.719
2668.39,134.033
2668.75,133.083
2669.11,130.238
2669.47,135.552
2669.84,131.918
2670.2,127.705
2670.56,133.808
2670.92,133.805
2671.28,129.75
2671.64,132.116
2672.01,134.588
2672.37,133.585
2672.73,132.846
2673.09,132.528
2673.45,132.262
2673.81,135.102
2674.18,133.363
2674.54,133.255
2674.9,132.253
2675.26,132.987
2675.62,130.142
2675.98,132.772
2676.34,133.822
2676.71,132.819
2677.07,134.291
2677.43,132.13
2677.79,133.76
2678.15,130.283
2678.51,132.86
2678.87,130.594
2679.23,134.276
2679.59,129.958
2679.96,135.692
2680.31,132.901
2680.68,133.319
2681.04,130.685
2681.4,133.578
2681.76,131.996
2682.12,132.573
2682.48,133.991
2682.84,133.621
2683.2,133.25
2683.56,134.563
2683.92,132.034
2684.28,130.506
2684.65,131.872
2685.01,131.817
2685.37,133.604
2685.73,134.601
2686.09,129.02
2686.45,132.544
2686.81,134.384
2687.17,130.96
2687.53,134.379
2687.89,135.324
2688.25,133.532
2688.61,130.687
2688.97,134.632
2689.33,133.472
2689.69,132.891
2690.05,133.204
2690.41,133.886
2690.77,134.778
2691.13,130.355
2691.49,132.615
2691.85,131.929
2692.21,136.768
2692.57,132.924
2692.93,132.027
2693.29,130.34
2693.65,137.022
2694.01,134.756
2694.37,134.017
2694.73,130.857
2695.09,135.644
2695.45,133.957
2695.81,133.376
2696.17,131.952
2696.53,131.74
2696.89,134.421
2697.25,130.472
2697.61,135.259
2697.97,133.151
2698.33,132.359
2698.69,133.409
2699.05,135.986
2699.41,134.983
2699.77,132.928
2700.13,131.189
2700.49,135.239
2700.85,134.605
2701.21,133.603
2701.57,131.969
2701.93,132.756
2702.29,130.912
2702.65,135.33
2703.01,132.538
2703.36,131.431
2703.72,132.586
2704.08,134.636
2704.44,130.476
2704.8,131.947
2705.16,132.155
2705.52,134.364
2705.88,132.73
2706.24,133.148
2706.6,134.83
2706.96,132.038
2707.32,134.404
2707.67,133.717
2708.03,133.452
2708.39,134.028
2708.75,133.973
2709.11,131.497
2709.47,139.126
2709.83,137.387
2710.19,133.648
2710.55,130.172
2710.91,129.643
2711.26,132.957
2711.62,133.744
2711.98,132.32
2712.34,135.791
2712.7,134.473
2713.06,133.05
2713.42,132.574
2713.77,133.782
2714.13,132.779
2714.49,132.566
2714.85,134.775
2715.21,131.667
2715.57,128.086
2715.92,135.452
2716.28,131.923
2716.64,133.657
2717,131.602
2717.36,136.179
2717.72,133.755
2718.07,134.7
2718.43,134.487
2718.79,132.327
2719.15,133.851
2719.51,134.585
2719.87,129.215
2720.22,131.949
2720.58,133.315
2720.94,133.786
2721.3,130.942
2721.66,133.939
2722.01,134.042
2722.37,131.671
2722.73,133.616
2723.09,131.824
2723.45,130.085
2723.8,132.399
2724.16,133.238
2724.52,134.183
2724.88,134.233
2725.23,134.021
2725.59,134.913
2725.95,133.805
2726.31,136.382
2726.67,133.485
2727.02,132.903
2727.38,132.217
2727.74,136.951
2728.1,136.685
2728.45,134.63
2728.81,135.417
2729.17,137.099
2729.53,132.781
2729.88,134.673
2730.24,135.671
2730.6,132.405
2730.96,134.771
2731.31,131.874
2731.67,133.398
2732.03,139.238
2732.39,133.183
2732.74,134.917
2733.1,131.389
2733.46,137.228
2733.81,131.963
2734.17,136.381
2734.53,134.8
2734.88,132.271
2735.24,134.216
2735.6,131.477
2735.96,132.948
2736.31,134.735
2736.67,130.838
2737.03,135.309
2737.38,133.518
2737.74,131.884
2738.1,134.355
2738.45,133.037
2738.81,131.876
2739.17,136.137
2739.52,129.45
2739.88,137.027
2740.24,132.972
2740.59,134.18
2740.95,134.178
2741.31,133.491
2741.66,129.278
2742.02,134.802
2742.38,132.747
2742.73,135.902
2743.09,131.9
2743.45,132.213
2743.8,134.474
2744.16,134.156
2744.52,133.469
2744.87,132.099
2745.23,131.833
2745.58,131.988
2745.94,134.723
2746.3,132.668
2746.65,135.508
2747.01,130.031
2747.37,134.713
2747.72,134.395
2748.08,136.287
2748.43,132.969
2748.79,130.546
2749.15,135.333
2749.5,134.699
2749.86,138.486
2750.21,132.589
2750.57,133.323
2750.93,136.689
2751.28,132.739
2751.64,134.421
2751.99,132.419
2752.35,132.364
2752.7,134.782
2753.06,131.412
2753.42,136.567
2753.77,133.459
2754.13,132.457
2754.48,136.349
2754.84,136.505
2755.2,137.397
2755.55,135.921
2755.9,133.287
2756.26,130.6
2756.62,133.966
2756.97,132.069
2757.33,133.225
2757.68,133.222
2758.04,134.062
2758.39,133.007
2758.75,135.689
2759.1,135.634
2759.46,132.737
2759.81,132.418
2760.17,134.837
2760.53,131.835
2760.88,135.043
2761.23,135.04
2761.59,137.512
2761.95,133.983
2762.3,132.717
2762.66,133.347
2763.01,135.081
2763.37,132.236
2763.72,136.129
2764.08,133.968
2764.43,132.808
2764.79,135.49
2765.14,132.172
2765.5,136.064
2765.85,132.588
2766.21,137.059
2766.56,133.11
2766.91,135.318
2767.27,135.21
2767.62,136.944
2767.98,134.574
2768.33,132.782
2768.69,133.095
2769.04,134.724
2769.4,133.564
2769.75,133.246
2770.11,130.085
2770.46,134.557
2770.81,132.396
2771.17,133.078
2771.52,135.549
2771.88,131.231
2772.23,136.913
2772.59,136.279
2772.94,134.54
2773.3,131.748
2773.65,137.167
2774,134.217
2774.36,133.32
2774.71,132.265
2775.07,135.315
2775.42,136.944
2775.77,132.468
2776.13,132.676
2776.48,134.568
2776.84,131.724
2777.19,134.564
2777.55,135.772
2777.9,135.506
2778.25,136.188
2778.61,137.08
2778.96,136.025
2779.31,134.602
2779.67,134.073
2780.02,133.071
2780.38,131.384
2780.73,138.013
2781.08,132.537
2781.44,133.271
2781.79,136.532
2782.14,132.898
2782.5,134.159
2782.85,137.893
2783.21,136.049
2783.56,133.52
2783.91,133.36
2784.27,133.831
2784.62,134.776
2784.97,135.563
2785.33,133.824
2785.68,133.243
2786.03,138.188
2786.39,132.132
2786.74,136.709
2787.09,135.338
2787.45,132.915
2787.8,130.07
2788.15,132.068
2788.5,133.223
2788.86,138.274
2789.21,130.85
2789.56,134.742
2789.92,135.582
2790.27,134.527
2790.62,138.051
2790.98,134.943
2791.33,133.046
2791.68,134.728
2792.04,134.568
2792.39,137.249
2792.74,132.931
2793.09,134.981
2793.45,134.4
2793.8,135.398
2794.15,136.29
2794.51,136.182
2794.86,135.601
2795.21,131.651
2795.56,136.912
2795.92,136.541
2796.27,134.433
2796.62,135.536
2796.97,134.639
2797.33,136.584
2797.68,130.95
2798.03,131.895
2798.38,132.261
2798.74,138.048
2799.09,139.467
2799.44,135.254
2799.79,133.146
2800.15,132.512
2800.5,137.773
2800.85,132.35
2801.2,138.294
2801.56,134.239
2801.91,132.395
2802.26,136.445
2802.61,133.022
2802.96,135.125
2803.32,135.28
2803.67,133.857
2804.02,133.591
2804.37,136.325
2804.72,134.112
2805.08,133.636
2805.43,133.055
2805.78,137.316
2806.13,139.734
2806.48,136.258
2806.83,132.203
2807.19,134.096
2807.54,136.83
2807.89,135.775
2808.24,136.404
2808.59,132.612
2808.95,135.768
2809.3,132.66
2809.65,136.605
2810,131.182
2810.35,134.179
2810.7,136.072
2811.06,133.595
2811.41,135.856
2811.76,138.854
2812.11,135.693
2812.46,136.323
2812.81,136.847
2813.17,135.265
2813.52,139.368
2813.87,133.787
2814.22,133.679
2814.57,136.361
2814.92,133.99
2815.27,132.04
2815.62,134.406
2815.98,136.72
2816.33,133.349
2816.68,133.294
2817.03,136.081
2817.38,131.184
2817.73,134.444
2818.08,136.968
2818.43,134.492
2818.78,132.7
2819.13,133.487
2819.49,132.853
2819.84,132.851
2820.19,133.691
2820.54,132.794
2820.89,133.265
2821.24,136.368
2821.59,134.734
2821.94,133.1
2822.29,136.069
2822.64,132.635
2822.99,134.152
2823.34,134.768
2823.69,133.84
2824.04,135.572
2824.39,136.884
2824.75,133.581
2825.1,137.896
2825.45,135.558
2825.8,136.412
2826.15,136.744
2826.5,132.407
2826.85,136.326
2827.2,136.335
2827.55,135.237
2827.9,137.631
2828.25,134.996
2828.6,134.933
2828.95,137.215
2829.3,135.419
2829.65,135.198
2830,137.113
2830.35,135.542
2830.7,134.25
2831.05,135.176
2831.4,135.675
2831.75,136.395
2832.1,134.406
2832.45,131.882
2832.8,134.882
2833.15,134.877
2833.5,133.774
2833.85,135.633
2834.2,133.35
2834.55,136.575
2834.9,134.965
2835.25,132.374
2835.6,135.346
2835.95,137.458
2836.3,136.379
2836.65,136.603
2837,137.915
2837.35,135.65
2837.7,136.08
2838.05,134.844
2838.4,134.645
2838.75,133.863
2839.1,135.1
2839.45,136.217
2839.8,136.605
2840.15,134.41
2840.49,136.467
2840.84,137.768
2841.19,133.482
2841.54,137.367
2841.89,137.777
2842.24,135.477
2842.59,135.717
2842.94,135.945
2843.29,135.923
2843.64,133.931
2843.99,133.23
2844.34,134.591
2844.69,134.709
2845.03,135.546
2845.38,136.093
2845.73,135.471
2846.08,135.25
2846.43,135.14
2846.78,136.894
2847.13,135.144
2847.48,136.995
2847.83,135.802
2848.17,134.979
2848.52,134.932
2848.87,137.277
2849.22,136.12
2849.57,134.805
2849.92,133.917
2850.27,135.648
2850.62,135.568
2850.97,136.197
2851.31,134.474
2851.66,135.541
2852.01,135.117
2852.36,136.578
2852.71,137.58
2853.06,136.368
2853.41,134.698
2853.75,135.536
2854.1,135.9
2854.45,136.696
2854.8,136.112
2855.15,136.093
2855.5,136.141
2855.84,136.851
2856.19,134.338
2856.54,134.414
2856.89,133.934
2857.24,134.707
2857.58,135.989
2857.93,137.351
2858.28,136.444
2858.63,136.414
2858.98,134.546
2859.32,137.832
2859.64,136.641
2859.99,133.482
2860.34,135.534
2860.69,136.69
2861.05,134.847
2861.4,135.32
2861.75,135.003
2862.1,135.212
2862.46,137.263
2862.81,136.525
2863.16,135.524
2863.52,133.628
2863.87,137.153
2864.22,133.205
2864.57,133.414
2864.93,137.518
2865.28,132.833
2865.63,134.621
2865.98,132.515
2866.33,136.25
2866.69,136.302
2867.04,137.722
2867.39,133.247
2867.74,136.825
2868.1,137.139
2868.45,136.717
2868.8,133.663
2869.15,138.03
2869.5,132.187
2869.86,133.607
2870.21,133.448
2870.56,134.657
2870.91,137.077
2871.27,132.602
2871.62,136.338
2871.97,136.652
2872.32,138.914
2872.67,135.597
2873.02,135.28
2873.38,137.384
2873.73,135.541
2874.08,133.119
2874.43,135.381
2874.78,135.485
2875.13,136.905
2875.49,134.746
2875.84,131.534
2876.19,134.901
2876.54,137.689
2876.89,137.425
2877.24,135.424
2877.6,138.265
2877.95,135.369
2878.3,141.368
2878.65,134.998
2879,138.155
2879.35,134.206
2879.7,134.047
2880.06,137.414
2880.41,135.782
2880.76,135.359
2881.11,136.516
2881.46,133.304
2881.81,136.198
2882.16,134.723
2882.51,133.564
2882.87,133.563
2883.22,134.351
2883.57,135.929
2883.92,135.717
2884.27,137.137
2884.62,134.978
2884.97,137.819
2885.32,134.712
2885.67,135.343
2886.02,136.078
2886.38,134.446
2886.73,135.602
2887.08,132.548
2887.43,138.6
2887.78,136.336
2888.13,134.019
2888.48,134.333
2888.83,132.806
2889.18,138.278
2889.53,132.961
2889.88,133.276
2890.23,137.327
2890.58,138.537
2890.94,135.377
2891.29,135.587
2891.64,134.954
2891.99,133.321
2892.34,135.583
2892.69,131.74
2893.04,137.791
2893.39,133.422
2893.74,135.315
2894.09,133.735
2894.44,138.418
2894.79,134.575
2895.14,133.363
2895.49,136.204
2895.84,134.992
2896.19,137.202
2896.54,128.095
2896.89,134.673
2897.24,131.251
2897.59,131.986
2897.94,136.775
2898.29,134.51
2898.64,133.772
2898.99,134.087
2899.34,136.717
2899.69,135.032
2900.04,139.189
2900.39,137.819
2900.74,137.818
2901.09,133.922
2901.44,134.71
2901.79,137.183
2902.14,133.392
2902.49,138.864
2902.84,135.969
2903.19,136.178
2903.54,138.598
2903.89,134.123
2904.24,135.069
2904.59,136.857
2904.94,135.225
2905.29,136.644
2905.64,136.327
2905.99,135.484
2906.34,135.115
2906.69,133.271
2907.04,134.638
2907.38,136.585
2907.73,136.952
2908.08,131.319
2908.43,132.686
2908.78,133.58
2909.13,134.473
2909.48,136.946
2909.83,134.208
2910.18,133.312
2910.53,134.679
2910.88,134.152
2911.23,136.993
2911.58,136.623
2911.93,134.569
2912.27,137.147
2912.62,138.146
2912.97,139.092
2913.32,133.933
2913.67,134.774
2914.02,137.562
2914.37,137.192
2914.72,133.665
2915.07,137.506
2915.41,136.136
2915.76,134.24
2916.11,136.555
2916.46,134.606
2916.81,135.184
2917.16,132.025
2917.51,136.866
2917.86,135.917
2918.2,140.39
2918.55,135.178
2918.9,137.124
2919.25,136.439
2919.6,134.596
2919.95,135.015
2920.3,136.119
2920.64,135.592
2920.99,137.433
2921.34,134.432
2921.69,135.167
2922.04,136.64
2922.39,134.165
2922.74,136.953
2923.08,133.426
2923.43,136.004
2923.78,135.844
2924.13,134.843
2924.48,135.684
2924.82,132.63
2925.17,134.208
2925.52,135.312
2925.87,136.732
2926.22,134.362
2926.56,135.309
2926.91,136.886
2927.26,135.464
2927.61,137.252
2927.96,134.672
2928.31,135.882
2928.65,135.986
2929,137.511
2929.35,140.299
2929.7,137.087
2930.04,134.981
2930.39,136.717
2930.74,138.715
2931.09,137.819
2931.43,136.397
2931.78,139.975
2932.13,135.132
2932.48,136.236
2932.83,136.866
2933.17,136.181
2933.52,137.548
2933.87,134.336
2934.22,136.335
2934.56,138.913
2934.91,138.227
2935.26,138.226
2935.61,136.436
2935.95,138.276
2936.3,135.17
2936.65,136.59
2937,136.641
2937.34,135.482
2937.69,138.06
2938.04,133.638
2938.38,135.479
2938.73,137.583
2939.08,135.424
2939.43,136.949
2939.77,137.737
2940.12,135.209
2940.47,136.735
2940.81,138.891
2941.16,134.68
2941.51,137.784
2941.85,136.835
2942.2,134.834
2942.55,133.727
2942.9,139.726
2943.24,138.199
2943.59,136.408
2943.94,132.67
2944.28,137.09
2944.63,134.405
2944.98,136.193
2945.32,138.086
2945.67,137.033
2946.02,134.294
2946.36,133.82
2946.71,134.766
2947.06,137.186
2947.4,137.816
2947.75,140.025
2948.1,133.814
2948.44,132.812
2948.79,134.548
2949.14,137.652
2949.48,137.283
2949.83,135.071
2950.17,138.07
2950.52,134.858
2950.87,135.962
2951.22,137.277
2951.56,134.17
2951.91,136.274
2952.25,134.799
2952.6,134.272
2952.95,137.218
2953.29,136.112
2953.64,135.795
2953.98,135.583
2954.33,134.213
2954.68,134.423
2955.02,138
2955.37,133.999
2955.71,136.945
2956.06,137.892
2956.41,141.048
2956.75,137.31
2957.1,136.046
2957.44,132.413
2957.79,136.149
2958.14,136.621
2958.48,136.357
2958.83,135.356
2959.17,132.407
2959.52,136.827
2959.86,133.247
2960.21,135.456
2960.55,136.876
2960.9,138.138
2961.25,134.979
2961.59,135.294
2961.94,138.345
2962.28,138.133
2962.63,137.816
2962.97,137.868
2963.32,132.393
2963.67,136.392
2964.01,135.917
2964.36,135.81
2964.7,133.809
2965.05,137.282
2965.39,136.912
2965.74,136.858
2966.08,133.015
2966.43,137.277
2966.77,138.118
2967.12,135.274
2967.46,136.589
2967.81,135.325
2968.15,138.113
2968.5,139.743
2968.84,135.163
2969.19,137.057
2969.53,136.95
2969.88,138.107
2970.22,134.895
2970.57,134.631
2970.91,135.314
2971.26,135.523
2971.6,138.048
2971.95,135.731
2972.29,136.73
2972.64,135.729
2972.98,138.781
2973.33,139.411
2973.67,136.883
2974.02,135.777
2974.36,137.197
2974.71,137.669
2975.05,136.194
2975.4,136.983
2975.74,138.666
2976.08,134.98
2976.43,137.19
2976.77,138.452
2977.12,135.345
2977.46,136.344
2977.81,136.395
2978.15,137.184
2978.5,139.498
2978.84,141.287
2979.18,139.496
2979.53,138.442
2979.87,136.704
2980.22,135.019
2980.56,137.017
2980.91,133.701
2981.25,135.647
2981.59,138.645
2981.94,136.644
2982.28,140.748
2982.63,141.168
2982.97,134.746
2983.31,139.271
2983.66,139.849
2984,135.848
2984.35,138.636
2984.69,135.635
2985.03,135.634
2985.38,135.738
2985.72,135.894
2986.07,137.841
2986.41,140.05
2986.75,135.207
2987.1,137.153
2987.44,137.573
2987.78,135.94
2988.13,137.623
2988.47,140.411
2988.82,136.357
2989.16,137.935
2989.5,140.723
2989.85,137.406
2990.19,136.668
2990.53,131.246
2990.88,134.824
2991.22,135.191
2991.56,139.137
2991.91,139.189
2992.25,138.24
2992.59,136.239
2992.94,135.501
2993.28,136.026
2993.62,140.446
2993.97,136.761
2994.31,137.338
2994.65,142.337
2995,139.02
2995.34,136.598
2995.68,135.649
2996.03,139.648
2996.37,134.068
2996.71,137.119
2997.06,140.381
2997.4,139.906
2997.74,136.379
2998.08,136.851
2998.43,138.798
2998.77,136.639
2999.11,140.795
2999.46,139.426
2999.8,135.003
3000.14,135.529
3000.49,140.79
3000.83,133.737
3001.17,135.63
3001.51,141.05
3001.86,138.891
3002.2,140.153
3002.54,138.889
3002.88,136.361
3003.23,140.044
3003.57,134.411
3003.91,139.621
3004.25,139.198
3004.6,139.881
3004.94,140.564
3005.28,135.669
3005.62,135.194
3005.97,137.192
3006.31,138.665
3006.65,138.401
3006.99,137.557
3007.33,138.872
3007.68,137.344
3008.02,141.343
3008.36,140.395
3008.7,141.867
3009.05,138.182
3009.39,137.444
3009.73,136.495
3010.07,138.389
3010.42,138.177
3010.76,136.334
3011.1,136.701
3011.44,140.542
3011.78,139.435
3012.13,136.75
3012.47,142.275
3012.81,136.642
3013.15,138.641
3013.49,141.166
3013.84,139.639
3014.18,138.059
3014.52,137.636
3014.86,138.583
3015.2,134.687
3015.54,136.475
3015.89,139.895
3016.23,140.63
3016.57,136.577
3016.91,140.47
3017.25,135.048
3017.59,138.784
3017.94,135.835
3018.28,142.097
3018.62,139.727
3018.96,139.674
3019.3,138.988
3019.64,138.355
3019.98,142.354
3020.33,138.037
3020.67,141.404
3021.01,137.351
3021.35,139.244
3021.69,138.611
3022.03,138.452
3022.37,140.241
3022.71,137.608
3023.06,137.291
3023.4,140.237
3023.74,139.394
3024.08,138.761
3024.42,138.602
3024.76,138.548
3025.1,140.599
3025.44,137.493
3025.78,138.597
3026.13,138.28
3026.47,136.016
3026.81,136.646
3027.15,141.224
3027.49,140.381
3027.83,136.695
3028.17,144.22
3028.51,138.745
3028.85,139.586
3029.19,141.111
3029.53,138.795
3029.87,140.478
3030.22,138.108
3030.56,142.58
3030.9,140.053
3031.24,139.789
3031.58,140.156
3031.92,139.997
3032.26,138.838
3032.6,138.678
3032.94,141.993
3033.28,138.045
3033.62,139.622
3033.96,139.358
3034.3,137.778
3034.64,140.513
3034.98,139.46
3035.32,135.88
3035.66,140.352
3036,140.088
3036.34,140.718
3036.68,137.98
3037.02,140.4
3037.36,138.978
3037.7,141.397
3038.04,139.08
3038.38,141.079
3038.73,141.131
3039.06,139.34
3039.41,141.602
3039.74,142.285
3040.08,143.126
3040.43,138.388
3040.76,139.229
3041.1,137.859
3041.44,138.069
3041.78,137.646
3042.12,138.54
3042.46,137.907
3042.8,142.537
3043.14,139.378
3043.48,141.798
3043.82,139.587
3044.16,139.901
3044.5,137.795
3044.84,140.899
3045.18,139.477
3045.52,136.581
3045.86,142.001
3046.2,138.631
3046.54,139.314
3046.88,141.049
3047.22,140.364
3047.56,141.1
3047.9,141.52
3048.24,138.413
3048.58,143.359
3048.92,141.2
3049.25,135.357
3049.59,138.935
3049.93,135.723
3050.27,140.722
3050.61,140.194
3050.95,142.772
3051.29,140.666
3051.63,142.717
3051.97,138.242
3052.31,140.715
3052.65,138.608
3052.99,139.923
3053.33,141.29
3053.66,143.552
3054,141.393
3054.34,140.234
3054.68,138.969
3055.02,141.389
3055.36,142.441
3055.7,142.124
3056.04,142.702
3056.38,140.069
3056.71,140.594
3057.05,139.909
3057.39,140.223
3057.73,139.275
3058.07,141.115
3058.41,141.167
3058.75,141.587
3059.09,136.586
3059.42,140.69
3059.76,140.215
3060.1,140.477
3060.44,142.054
3060.78,141.317
3061.12,138.999
3061.45,139.472
3061.79,137.787
3062.13,141.206
3062.47,136.363
3062.81,142.836
3063.15,139.782
3063.48,143.149
3063.82,138.569
3064.16,138.673
3064.5,138.988
3064.84,135.565
3065.18,140.617
3065.51,139.616
3065.85,140.562
3066.19,140.14
3066.53,141.086
3066.87,140.032
3067.2,140.768
3067.54,141.556
3067.88,141.66
3068.22,139.343
3068.56,140.921
3068.89,138.183
3069.23,143.287
3069.57,134.391
3069.91,137.074
3070.25,139.23
3070.58,140.124
3070.92,133.491
3071.26,138.595
3071.6,137.857
3071.93,140.856
3072.27,140.276
3072.61,141.538
3072.95,142.642
3073.29,137.799
3073.62,142.166
3073.96,143.481
3074.3,144.558
3074.64,142.689
3074.97,143.793
3075.31,144.37
3075.65,139.58
3075.99,139.316
3076.32,139.42
3076.66,142.103
3077,144.049
3077.34,142.1
3077.67,144.204
3078.01,142.203
3078.35,138.518
3078.68,142.148
3079.02,138.726
3079.36,141.461
3079.69,140.513
3080.03,141.722
3080.37,140.721
3080.71,140.93
3081.04,139.824
3081.38,143.402
3081.72,143.506
3082.05,139.294
3082.39,139.609
3082.73,140.765
3083.07,139.975
3083.4,138.868
3083.74,139.657
3084.08,144.34
3084.41,137.391
3084.75,144.442
3085.09,140.231
3085.42,137.861
3085.76,140.491
3086.1,142.438
3086.43,142.331
3086.77,141.119
3087.11,139.908
3087.44,141.012
3087.78,142.484
3088.12,142.431
3088.45,136.798
3088.79,139.323
3089.13,136.953
3089.46,140.952
3089.8,140.109
3090.13,140.792
3090.47,139.58
3090.81,139.421
3091.14,141.736
3091.48,140.471
3091.82,140.154
3092.15,139.679
3092.49,138.836
3092.83,141.993
3093.16,142.518
3093.5,143.306
3093.83,138.989
3094.17,140.251
3094.51,141.46
3094.84,141.512
3095.18,140.932
3095.51,142.404
3095.85,138.561
3096.19,141.455
3096.52,141.243
3096.86,137.926
3097.19,143.135
3097.53,137.397
3097.86,141.343
3098.2,142.816
3098.54,141.183
3098.87,138.182
3099.21,141.286
3099.54,141.074
3099.88,137.599
3100.22,140.651
3100.55,138.702
3100.89,142.385
3101.22,138.7
3101.56,139.541
3101.89,143.434
3102.23,142.38
3102.56,139.906
3102.9,141.431
3103.23,139.745
3103.57,138.27
3103.91,140.269
3104.24,139.373
3104.58,139.53
3104.91,142.529
3105.25,143.37
3105.58,143.369
3105.92,138.894
3106.25,141.419
3106.59,141.207
3106.92,138.416
3107.26,140.415
3107.59,140.204
3107.93,140.623
3108.26,140.727
3108.6,134.568
3108.93,140.83
3109.27,140.355
3109.6,139.512
3109.94,133.932
3110.28,139.826
3110.61,139.509
3110.94,143.613
3111.28,138.717
3111.61,141.821
3111.95,141.241
3112.28,143.503
3112.62,139.817
3112.95,141.395
3113.29,140.499
3113.62,141.814
3113.96,140.549
3114.29,139.338
3114.63,141.073
3114.96,139.914
3115.3,140.176
3115.63,140.754
3115.97,143.068
3116.3,139.436
3116.63,138.224
3116.97,143.486
3117.3,138.274
3117.64,137.484
3117.97,135.324
3118.31,137.586
3118.64,140.848
3118.97,139.374
3119.31,139.425
3119.64,139.687
3119.98,137.37
3120.31,139.79
3120.65,140.052
3120.98,139.787
3121.31,141.102
3121.65,139.89
3121.98,139.521
3122.32,140.362
3122.65,136.466
3122.99,137.464
3123.32,142.569
3123.65,139.673
3123.99,138.566
3124.32,138.197
3124.65,143.985
3124.99,144.51
3125.32,141.298
3125.66,138.771
3125.99,140.454
3126.32,138.926
3126.66,139.188
3126.99,140.345
3127.32,139.344
3127.66,138.764
3127.99,141.236
3128.33,139.077
3128.66,140.339
3128.99,139.127
3129.33,142.705
3129.66,139.967
3129.99,140.176
3130.33,138.912
3130.66,139.753
3130.99,137.857
3131.33,142.645
3131.66,140.012
3131.99,140.432
3132.33,139.379
3132.66,139.325
3133,145.218
3133.33,143.48
3133.66,136.479
3134,140.215
3134.33,141.792
3134.66,141.002
3134.99,143.948
3135.33,140.841
3135.66,138.577
3135.99,133.892
3136.33,139.522
3136.66,140.574
3136.99,141.151
3137.33,140.571
3137.66,141.833
3137.99,140.569
3138.32,140.62
3138.66,137.356
3138.99,139.039
3139.32,141.791
3139.66,142.288
3139.99,138.569
3140.32,140.908
3140.65,144.291
3140.99,144.189
3141.32,139.512
3141.65,136.863
3141.99,141.859
3142.32,140.61
3142.65,138.495
3142.98,140.263
3143.32,139.573
3143.65,141.568
3143.98,140.849
3144.31,143.002
3144.65,139.594
3144.98,138.042
3145.31,137.164
3145.64,140.066
3145.98,141.518
3146.31,140.919
3146.64,143.078
3146.97,140.333
3147.3,138.668
3147.64,143.112
3147.97,140.885
3148.3,141.441
3148.63,140.72
3148.97,137.655
3149.3,142.403
3149.63,142.636
3149.96,141.213
3150.29,141.688
3150.63,142.647
3150.96,141
3151.29,139.941
3151.62,139.843
3151.95,142.183
3152.29,140.801
3152.62,141.108
3152.95,139.562
3153.28,139.218
3153.61,141.699
3153.95,140.593
3154.28,140.482
3154.61,141.805
3154.94,140.928
3155.27,140.193
3155.6,141.782
3155.94,141.506
3156.27,142.864
3156.6,142.549
3156.93,140.768
3157.26,140.581
3157.59,142.273
3157.93,140.668
3158.26,141.406
3158.59,140.858
3158.92,143.269
3159.25,140.356
3159.58,143.706
3159.91,139.44
3160.25,140.686
3160.58,141.379
3160.91,141.472
3161.24,140.37
3161.57,141.467
3161.9,143.31
3162.23,143.793
3162.56,141.052
3162.89,139.529
3163.23,140.385
3163.56,142.111
3163.89,139.948
3164.22,141.788
3164.55,143.892
3164.88,142.148
3165.21,143.652
3165.54,141.159
3165.88,141.212
3166.21,139.649
3166.54,139.361
3166.87,143.383
3167.2,142.368
3167.53,143.349
3167.86,141.217
3168.19,139.937
3168.52,142.708
3168.85,143.34
3169.18,140.255
3169.51,140.029
3169.84,141.072
3170.18,141.657
3170.51,140.411
3170.84,138.96
3171.17,139.855
3171.5,140.14
3171.83,140.728
3172.16,142.129
3172.49,143.069
3172.82,141.439
3173.15,142.841
3173.32,146.559
3173.66,141.35
3173.99,141.982
3174.33,145.562
3174.66,143.932
3175,138.301
3175.33,142.039
3175.67,141.935
3176,144.778
3176.34,141.306
3176.67,140.938
3177.01,141.466
3177.34,141.625
3177.67,140.994
3178.01,144.469
3178.34,138.733
3178.68,142.524
3179.01,142.841
3179.35,144.473
3179.68,142.001
3180.02,141.002
3180.35,141.529
3180.69,140.372
3181.02,146.058
3181.36,143.006
3181.69,144.323
3182.02,142.324
3182.36,139.851
3182.69,142.642
3183.03,145.485
3183.36,146.433
3183.7,142.698
3184.03,144.172
3184.36,141.384
3184.7,142.754
3185.03,141.386
3185.37,142.914
3185.7,145.125
3186.04,144.968
3186.37,142.917
3186.71,143.549
3187.04,141.077
3187.37,143.815
3187.71,143.447
3188.04,144.501
3188.38,143.818
3188.71,141.766
3189.04,142.978
3189.38,145.032
3189.71,142.875
3190.05,142.771
3190.38,144.351
3190.71,141.352
3191.05,142.353
3191.38,144.196
3191.71,141.145
3192.05,145.672
3192.38,139.831
3192.72,141.99
3193.05,138.622
3193.38,140.676
3193.72,144.098
3194.05,142.152
3194.38,144.942
3194.72,144.996
3195.05,140.103
3195.39,143.893
3195.72,144.526
3196.05,146.843
3196.39,143.896
3196.72,141.95
3197.05,143.162
3197.39,144.742
3197.72,145.901
3198.05,147.533
3198.39,142.008
3198.72,139.904
3199.05,140.642
3199.39,139.59
3199.72,144.328
3200.05,145.803
3200.39,143.541
3200.72,143.068
3201.05,140.859
3201.38,144.439
3201.72,146.387
3202.05,143.757
3202.38,142.126
3202.72,142.074
3203.05,143.391
3203.38,148.708
3203.72,143.025
3204.05,145.079
3204.38,145.396
3204.72,142.555
3205.05,144.029
3205.38,146.662
3205.71,140.768
3206.05,142.875
3206.38,141.139
3206.71,143.193
3207.04,143.72
3207.38,142.668
3207.71,146.775
3208.04,140.513
3208.38,142.461
3208.71,147.567
3209.04,145.042
3209.37,143.57
3209.71,142.202
3210.04,137.098
3210.37,145.573
3210.7,144.837
3211.04,143.259
3211.37,142.523
3211.7,142.788
3212.03,144.947
3212.37,147.948
3212.7,145.949
3213.03,143.845
3213.36,144.056
3213.7,140.636
3214.03,147.532
3214.36,145.165
3214.69,142.692
3215.02,145.272
3215.36,141.22
3215.69,144.379
3216.02,146.012
3216.35,144.855
3216.68,145.698
3217.02,145.857
3217.35,145.806
3217.68,144.123
3218.01,142.282
3218.34,143.651
3218.68,141.389
3219.01,144.337
3219.34,142.023
3219.67,146.813
3220,143.078
3220.33,145.131
3220.67,144.448
3221,143.291
3221.33,142.819
3221.66,142.714
3221.99,142.189
3222.33,147.559
3222.66,145.297
3222.99,141.929
3223.32,145.246
3223.65,144.668
3223.98,144.827
3224.31,144.776
3224.65,143.882
3224.98,143.83
3225.31,147.937
3225.64,144.885
3225.97,146.097
3226.3,144.361
3226.63,141.73
3226.97,145.732
3227.3,144.891
3227.63,145.786
3227.96,144.472
3228.29,144.631
3228.62,146
3228.95,144.949
3229.29,146.16
3229.62,146.793
3229.95,145.846
3230.28,143.637
3230.61,148.27
3230.94,144.744
3231.27,144.851
3231.6,145.957
3231.93,144.853
3232.27,143.907
3232.6,145.855
3232.93,148.225
3233.26,147.857
3233.59,145.385
3233.92,144.438
3234.25,143.86
3234.58,144.44
3234.91,144.81
3235.24,143.285
3235.57,144.759
3235.9,144.603
3236.24,146.972
3236.57,146.447
3236.9,144.553
3237.23,146.923
3237.56,146.029
3237.89,147.504
3238.22,143.768
3238.55,147.716
3238.88,141.191
3239.21,143.297
3239.54,143.772
3239.87,146.3
3240.2,147.459
3240.53,145.933
3240.86,145.25
3241.19,143.988
3241.52,143.673
3241.85,147.464
3242.18,141.833
3242.51,143.308
3242.84,142.362
3243.17,147.416
3243.5,146.259
3243.83,144.207
3244.16,145.103
3244.5,145.367
3244.82,145.421
3245.16,145.738
3245.48,145.002
3245.81,145.108
3246.15,142.373
3246.47,146.163
3246.8,144.375
3247.14,146.586
3247.46,140.272
3247.79,143.009
3248.12,145.853
3248.45,143.327
3248.78,144.96
3249.11,142.961
3249.44,144.752
3249.77,145.279
3250.1,148.122
3250.43,143.965
3250.76,145.388
3251.09,144.441
3251.42,143.653
3251.75,145.128
3252.08,145.918
3252.41,146.288
3252.74,142.552
3253.07,146.5
3253.4,144.712
3253.73,146.608
3254.06,145.714
3254.39,146.241
3254.72,143.927
3255.05,144.454
3255.38,144.087
3255.71,148.193
3256.03,146.089
3256.36,144.248
3256.69,147.249
3257.02,146.092
3257.35,144.725
3257.68,142.673
3258.01,144.78
3258.34,147.833
3258.67,144.624
3259,147.572
3259.33,145.415
3259.66,142.259
3259.98,145.944
3260.31,145.577
3260.64,144.262
3260.97,142.789
3261.3,144.317
3261.63,146.476
3261.96,142.74
3262.29,143.741
3262.62,145.531
3262.94,144.848
3263.27,147.376
3263.6,142.903
3263.93,143.851
3264.26,144.8
3264.59,143.643
3264.92,144.697
3265.24,145.75
3265.57,143.33
3265.9,142.016
3266.23,148.806
3266.56,150.071
3266.89,146.914
3267.22,147.125
3267.54,142.705
3267.87,144.496
3268.2,141.129
3268.53,145.709
3268.86,145.394
3269.19,141.395
3269.51,142.238
3269.84,145.871
3270.17,147.188
3270.5,142.978
3270.83,145.979
3271.16,146.98
3271.48,146.929
3271.81,145.298
3272.14,143.194
3272.47,142.616
3272.8,143.249
3273.13,146.039
3273.45,147.461
3273.78,144.989
3274.11,143.043
3274.44,145.991
3274.76,145.624
3275.09,146.835
3275.42,147.731
3275.75,145.416
3276.08,145.312
3276.41,143.839
3276.73,143.314
3277.06,144.526
3277.39,144.527
3277.72,145.107
3278.04,145.529
3278.37,143.425
3278.7,141.636
3279.03,147.901
3279.35,141.165
3279.68,146.955
3280.01,148.114
3280.34,146.642
3280.67,145.643
3280.99,147.118
3281.32,145.54
3281.65,143.067
3281.98,145.331
3282.3,145.701
3282.63,146.491
3282.96,145.598
3283.29,146.336
3283.61,144.231
3283.94,142.969
3284.27,147.339
3284.59,147.656
3284.92,144.551
3285.25,145.763
3285.58,142.238
3285.9,145.344
3286.23,146.345
3286.56,145.241
3286.88,146.821
3287.21,146.348
3287.54,142.139
3287.87,144.561
3288.19,144.457
3288.52,147.3
3288.85,145.196
3289.17,147.355
3289.5,145.303
3289.83,144.831
3290.16,143.2
3290.48,144.096
3290.81,145.15
3291.14,143.677
3291.46,144.204
3291.79,147.1
3292.11,143.943
3292.44,144.471
3292.77,146.261
3293.1,145.736
3293.42,146.106
3293.75,146.001
3294.08,148.002
3294.4,144.319
3294.73,145.057
3295.06,145.69
3295.38,144.796
3295.71,142.745
3296.03,140.43
3296.36,144.536
3296.69,152.958
3297.01,146.433
3297.34,143.224
3297.67,147.804
3297.99,147.647
3298.32,144.701
3298.65,146.281
3298.97,143.229
3299.3,146.862
3299.62,147.758
3299.95,144.706
3300.28,142.181
3300.6,145.392
3300.93,146.446
3301.26,144.026
3301.58,144.869
3301.91,146.239
3302.23,146.713
3302.56,146.872
3302.89,145.821
3303.21,142.138
3303.54,146.77
3303.86,146.982
3304.19,147.93
3304.52,146.879
3304.84,144.775
3305.17,146.565
3305.49,148.356
3305.82,145.725
3306.14,147.042
3306.47,144.78
3306.8,148.676
3307.12,143.835
3307.45,149.731
3307.77,145.837
3308.1,146.154
3308.42,143.365
3308.75,148.051
3309.07,146.894
3309.4,141.158
3309.73,144.633
3310.05,146.002
3310.38,151.161
3310.7,141.847
3311.03,147.637
3311.35,144.849
3311.68,148.481
3312,144.167
3312.33,144.589
3312.65,148.011
3312.98,144.38
3313.3,146.96
3313.63,143.54
3313.96,149.015
3314.28,146.122
3314.61,147.175
3314.93,144.124
3315.26,146.862
3315.58,146.494
3315.91,142.916
3316.23,148.759
3316.56,144.024
3316.88,147.972
3317.21,144.026
3317.53,142.237
3317.86,146.239
3318.18,145.819
3318.51,147.714
3318.83,146.979
3319.16,146.401
3319.48,144.875
3319.81,146.771
3320.13,148.93
3320.45,146.563
3320.78,145.88
3321.1,148.249
3321.43,143.987
3321.75,146.515
3322.08,150.095
3322.4,141.096
3322.73,142.728
3323.05,145.361
3323.38,147.783
3323.7,143.153
3324.03,145.838
3324.35,143.47
3324.67,146.05
3325,146.525
3325.32,147.895
3325.65,145.791
3325.97,146.95
3326.3,146.477
3326.62,146.215
3326.95,150.479
3327.27,148.796
3327.59,145.744
3327.92,142.588
3328.24,143.01
3328.57,145.905
3328.89,149.275
3329.21,149.96
3329.54,141.961
3329.86,145.752
3330.19,146.121
3330.51,149.07
3330.83,147.281
3331.16,140.493
3331.48,142.599
3331.81,149.863
3332.13,143.654
3332.45,148.55
3332.78,142.761
3333.1,145.552
3333.43,141.869
3333.75,148.712
3334.07,148.608
3334.4,144.609
3334.72,147.557
3335.05,145.401
3335.37,146.717
3335.69,145.403
3336.02,149.193
3336.34,145.721
3336.66,144.774
3336.99,146.249
3337.31,143.461
3337.63,147.778
3337.96,144.305
3338.28,147.411
3338.6,147.36
3338.93,149.15
3339.25,142.151
3339.57,150.152
3339.9,148.259
3340.22,145.523
3340.54,144.787
3340.87,146.999
3341.19,146.052
3341.52,146.369
3341.84,143.897
3342.16,146.108
3342.48,147.057
3342.81,147.584
3343.13,147.585
3343.45,144.534
3343.78,144.272
3344.1,145.167
3344.42,144.853
3344.75,146.012
3345.07,144.96
3345.39,150.382
3345.71,143.488
3346.04,147.384
3346.36,146.648
3346.68,147.65
3347.01,144.861
3347.33,148.336
3347.65,145.811
3347.97,147.233
3348.3,147.181
3348.62,147.34
3348.94,146.973
3349.27,145.027
3349.59,147.238
3349.91,146.344
3350.23,148.135
3350.56,148.715
3350.88,148.506
3351.2,146.454
3351.52,147.034
3351.85,148.772
3352.17,151.51
3352.49,146.879
3352.81,143.617
3353.14,147.671
3353.46,145.567
3353.78,148.357
3354.1,144.727
3354.43,144.675
3354.75,149.624
3355.07,145.414
3355.39,143.994
3355.72,144.837
3356.04,147.996
3356.36,147.366
3356.68,144.735
3357,149.631
3357.33,148.685
3357.65,144.107
3357.97,146.476
3358.29,143.899
3358.61,145.479
3358.94,148.953
3359.26,144.112
3359.58,143.64
3359.9,149.588
3360.22,146.379
3360.55,151.959
3360.87,145.591
3361.19,146.54
3361.51,148.173
3361.83,146.068
3362.16,150.333
3362.48,145.176
3362.8,149.44
3363.12,148.336
3363.44,147.916
3363.76,143.127
3364.09,145.286
3364.41,146.708
3364.73,147.499
3365.05,147.974
3365.37,147.817
3365.69,147.66
3366.02,148.03
3366.34,145.873
3366.66,148.926
3366.98,144.454
3367.3,150.034
3367.62,145.877
3367.94,146.562
3368.27,148.827
3368.59,146.459
3368.91,146.46
3369.23,146.514
3369.55,147.515
3369.87,147.306
3370.19,146.043
3370.51,146.939
3370.84,149.73
3371.16,149.784
3371.48,147.416
3371.8,147.944
3372.12,144.892
3372.44,145.419
3372.76,147.789
3373.08,150.422
3373.4,147.896
3373.73,146.95
3374.05,148.162
3374.37,146.163
3374.69,144.532
3375.01,143.796
3375.33,147.903
3375.65,148.483
3375.97,147.8
3376.29,147.538
3376.61,146.749
3376.93,146.171
3377.25,147.014
3377.58,147.7
3377.9,147.069
3378.22,147.965
3378.54,148.098
3378.86,145.283
3379.18,146.968
3379.5,147.232
3379.82,146.286
3380.14,149.287
3380.46,146.657
3380.78,144.921
3381.1,150.396
3381.42,147.449
3381.74,148.556
3382.06,149.978
3382.38,148.61
3382.7,146.98
3383.02,146.507
3383.34,146.666
3383.66,145.667
3383.98,144.247
3384.3,147.248
3384.63,148.144
3384.95,145.409
3385.26,145.673
3385.58,144.937
3385.9,144.464
3386.23,144.834
3386.55,149.256
3386.87,147.099
3387.19,146.784
3387.51,146.891
3387.82,148.944
3388.14,142.103
3388.47,149.683
3388.79,149.053
3389.11,143.159
3389.43,145.16
3389.74,145.372
3390.06,147.847
3390.38,146.585
3390.7,145.691
3391.02,144.481
3391.34,147.377
3391.66,143.115
3391.98,145.643
3392.3,147.854
3392.62,149.75
3392.94,149.277
3393.26,146.331
3393.58,144.806
3393.9,144.544
3394.22,144.124
3394.54,145.546
3394.86,146.126
3395.18,144.706
3395.5,148.181
3395.82,150.182
3396.14,146.551
3396.46,148.552
3396.78,147.817
3397.09,140.66
3397.41,150.029
3397.73,150.872
3398.05,146.189
3398.37,149.717
3398.69,147.349
3399.01,148.192
3399.33,145.878
3399.65,146.931
3399.97,147.827
3400.29,143.723
3400.61,146.25
3400.92,145.251
3401.24,148.253
3401.56,144.622
3401.88,143.939
3402.2,145.572
3402.52,147.625
3402.84,148.153
3403.16,147.47
3403.48,147.418
3403.8,147.735
3404.11,143.578
3404.43,150.211
3404.75,147.37
3405.07,146.055
3405.39,148.74
3405.71,143.373
3406.03,147.69
3406.35,148.849
3406.66,148.534
3406.98,145.798
3407.3,146.273
3407.62,145.642
3407.94,143.538
3408.26,146.855
3408.57,146.961
3408.89,149.541
3409.21,146.121
3409.53,148.333
3409.85,147.913
3410.17,149.756
3410.48,144.599
3410.8,146.127
3411.12,145.128
3411.44,148.813
3411.76,147.656
3412.08,145.131
3412.39,146.237
3412.71,147.87
3413.03,142.924
3413.35,144.767
3413.67,146.452
3413.99,145.559
3414.3,145.033
3414.62,144.508
3414.94,146.246
3415.26,146.352
3415.58,149.932
3415.89,147.618
3416.21,141.566
3416.53,145.725
3416.85,145.726
3417.17,146.727
3417.48,143.886
3417.8,146.519
3418.12,147.204
3418.44,148.731
3418.75,149.153
3419.07,147.997
3419.39,143.629
3419.71,146.104
3420.03,147.789
3420.34,147.001
3420.66,147.055
3420.98,147.635
3421.3,145.794
3421.61,149.584
3421.93,142.901
3422.25,147.849
3422.57,145.008
3422.88,144.167
3423.2,143.905
3423.52,146.38
3423.83,144.381
3424.15,145.277
3424.47,145.646
3424.79,145.437
3425.11,146.175
3425.42,151.492
3425.74,147.756
3426.06,147.073
3426.37,146.706
3426.69,145.338
3427.01,146.602
3427.33,148.025
3427.64,147.762
3427.96,146.5
3428.28,145.607
3428.59,144.292
3428.91,144.977
3429.23,144.926
3429.54,148.769
3429.86,144.401
3430.18,147.876
3430.5,143.614
3430.81,144.142
3431.13,144.827
3431.45,149.512
3431.76,149.776
3432.08,148.514
3432.4,151.831
3432.71,148.569
3433.03,148.781
3433.35,145.097
3433.66,145.52
3433.98,144.258
3434.3,147.469
3434.61,145.891
3434.93,142.682
3435.25,146.735
3435.56,145.052
3435.88,147.738
3436.2,145.265
3436.51,146.056
3436.83,145.741
3437.15,147.11
3437.46,147.69
3437.78,149.218
3438.1,145.114
3438.41,145.22
3438.73,147.379
3439.04,139.327
3439.36,146.013
3439.68,145.803
3439.99,148.33
3440.31,144.016
3440.63,145.648
3440.94,146.913
3441.26,147.282
3441.57,147.863
3441.89,147.649
3442.21,144.373
3442.52,146.602
3442.84,148.242
3443.16,148.124
3443.47,143.139
3443.79,145.596
3444.1,146.049
3444.42,148.229
3444.73,145.938
3445.05,148.322
3445.37,145.06
3445.68,145.841
3446,146.35
3446.31,148.376
3446.63,143.929
3446.94,143.751
3447.26,144.857
3447.58,146.274
3447.89,144.251
3448.21,145.798
3448.52,147.069
3448.84,145.094
3449.16,148.013
3449.47,145.97
3449.79,145.639
3450.1,144.235
3450.42,144.718
3450.73,148.398
3451.05,149.344
3451.36,145.732
3451.68,143.255
3451.99,146.722
3452.31,148.336
3452.63,145.722
3452.94,145.316
3453.26,148.356
3453.57,146.119
3453.89,144.991
3454.2,146.42
3454.52,145.305
3454.83,147.824
3455.15,147.002
3455.46,145.392
3455.78,146.349
3456.09,145.669
3456.41,145.736
3456.72,145.058
3457.04,144.59
3457.35,145.618
3457.67,143.21
3457.98,148.105
3458.3,143.762
3458.61,143.925
3458.93,144.869
3459.24,147.384
3459.56,145.924
3459.87,145.03
3460.19,145.745
3460.5,146.421
3460.82,144.406
3461.13,146.514
3461.45,144.983
3461.76,144.27
3462.08,146.102
3462.39,143.393
3462.7,146.819
3463.02,146.897
3463.33,144.157
3463.65,145.402
3463.96,143.589
3464.28,143.287
3464.59,143.932
3464.91,144.668
3465.22,145.013
3465.53,145.001
3465.85,143.899
3466.16,145.252
3466.48,145.292
3466.79,144.871
3467.11,145.156
3467.42,144.328
3467.74,145.122
3468.05,144.73
3468.36,143.655
3468.68,144.545
3468.99,145.31
3469.31,143.552
3469.62,144.728
3469.93,144.899
3470.25,142.954
3470.56,145.3
3470.88,145.172
3471.19,146.749
3471.5,143.743
3471.82,143.954
3472.13,145.38
3472.45,147.38
3472.76,147.329
3473.08,142.061
3473.39,145.003
3473.71,140.998
3474.03,141.993
3474.35,147.777
3474.67,142.351
3474.99,147.977
3475.3,144.183
3475.62,145.704
3475.94,146.335
3476.26,145.282
3476.58,142.703
3476.9,145.282
3477.21,146.334
3477.53,144.597
3477.85,143.649
3478.17,146.228
3478.49,147.543
3478.8,144.438
3479.12,144.595
3479.44,144.806
3479.76,141.7
3480.08,145.173
3480.39,144.699
3480.71,146.226
3481.03,142.383
3481.35,146.278
3481.67,145.856
3481.98,146.698
3482.3,145.908
3482.62,144.066
3482.94,144.539
3483.26,143.328
3483.57,145.486
3483.89,145.907
3484.21,141.696
3484.53,142.748
3484.84,144.064
3485.16,145.537
3485.48,145.537
3485.8,145.063
3486.11,144.957
3486.43,145.273
3486.75,142.904
3487.07,141.43
3487.38,144.798
3487.7,146.166
3488.02,141.482
3488.34,146.482
3488.65,144.429
3488.97,145.534
3489.29,145.849
3489.61,144.533
3489.92,147.638
3490.24,145.111
3490.56,143.427
3490.88,144.216
3491.19,145.584
3491.51,145.215
3491.83,145.163
3492.14,144.478
3492.46,144.32
3492.78,148.004
3493.1,141.898
3493.41,142.372
3493.73,144.319
3494.05,147.792
3494.36,148.318
3494.68,145.844
3495,144.475
3495.31,143.265
3495.63,144.369
3495.95,142.685
3496.27,145.369
3496.58,144.474
3496.9,145.316
3497.22,144.736
3497.53,147.578
3497.85,146.736
3498.17,148.051
3498.48,146.419
3498.8,141.945
3499.12,149.629
3499.43,146.945
3499.75,144.155
3500.07,144.944
3500.38,144.26
3500.7,145.575
3501.02,144.68
3501.33,144.154
3501.65,143.153
3501.97,147.258
3502.28,141.995
3502.6,145.31
3502.92,146.415
3503.23,145.573
3503.55,143.836
3503.86,143.204
3504.18,145.94
3504.5,143.466
3504.81,148.94
3505.13,145.992
3505.45,148.097
3505.76,146.255
3506.08,144.518
3506.39,144.517
3506.71,145.517
3507.03,144.148
3507.34,144.727
3507.66,148.885
3507.97,147.516
3508.29,147.094
3508.61,142.147
3508.92,142.41
3509.24,143.462
3509.55,145.883
3509.87,146.303
3510.19,145.198
3510.5,147.829
3510.82,147.566
3511.13,147.934
3511.45,148.46
3511.77,144.828
3512.08,146.933
3512.4,144.722
3512.71,146.564
3513.03,143.774
3513.34,146.405
3513.66,146.826
3513.98,144.3
3514.29,147.826
3514.61,147.141
3514.92,146.088
3515.24,141.509
3515.55,146.509
3515.87,150.508
3516.19,149.455
3516.5,145.297
3516.81,148.402
3517.13,145.876
3517.45,146.454
3517.76,145.612
3518.08,145.769
3518.39,143.874
3518.71,144.611
3519.02,141.769
3519.34,143.295
3519.65,147.084
3519.97,145.82
3520.28,145.925
3520.6,142.136
3520.91,149.872
3521.23,144.819
3521.54,146.766
3521.86,148.608
3522.18,148.608
3522.49,146.028
3522.8,145.765
3523.12,146.502
3523.43,145.975
3523.75,145.133
3524.06,145.08
3524.38,146.342
3524.69,147.237
3525.01,144.973
3525.32,146.71
3525.64,146.762
3525.95,146.446
3526.27,146.341
3526.58,145.077
3526.9,145.814
3527.21,147.077
3527.53,147.129
3527.84,146.866
3528.16,143.339
3528.47,142.497
3528.79,146.496
3529.1,144.812
3529.42,145.338
3529.73,143.232
3530.05,149.074
3530.36,148.6
3530.67,147.126
3530.99,143.915
3531.3,144.125
3531.62,147.494
3531.93,141.651
3532.24,138.809
3532.56,146.914
3532.87,143.913
3533.19,143.808
3533.5,146.071
3533.82,142.123
3534.13,148.018
3534.45,144.491
3534.76,146.859
3535.07,144.175
3535.39,145.964
3535.7,144.648
3536.02,147.753
3536.33,145.226
3536.64,148.331
3536.96,145.699
3537.27,147.383
3537.59,144.541
3537.9,146.856
3538.21,145.119
3538.53,142.329
3538.84,145.329
3539.16,143.539
3539.47,145.012
3539.78,146.275
3540.1,147.854
3540.41,145.538
3540.73,145.853
3541.04,147.643
3541.35,149.432
3541.67,145.537
3541.98,147.115
3542.29,143.273
3542.61,145.167
3542.92,144.43
3543.24,144.693
3543.55,147.114
3543.86,151.324
3544.18,145.324
3544.49,145.429
3544.8,144.376
3545.12,142.902
3545.43,145.323
3545.74,142.638
3546.06,145.375
3546.37,148.164
3546.68,145.637
3547,147.953
3547.31,146.479
3547.62,141.689
3547.94,145.425
3548.25,144.794
3548.56,145.951
3548.88,146.951
3549.19,146.635
3549.5,148.95
3549.82,146.582
3550.13,143.792
3550.44,147.16
3550.75,146.844
3551.07,142.107
3551.38,144.264
3551.69,145.58
3552.01,145.053
3552.32,145.79
3552.63,147.421
3552.95,143.21
3553.26,144.105
3553.57,148.104
3553.88,142.683
3554.2,142.209
3554.51,141.63
3554.82,149.419
3555.14,144.682
3555.45,148.418
3555.76,148.576
3556.07,142.313
3556.39,144.523
3556.7,145.259
3557.01,146.733
3557.32,147.522
3557.64,145.258
3557.95,150.363
3558.26,147.1
3558.58,147.679
3558.89,148.099
3559.2,147.204
3559.51,143.73
3559.82,146.362
3560.14,150.203
3560.45,144.361
3560.76,144.571
3561.07,145.36
3561.39,140.729
3561.7,146.57
3562.01,146.096
3562.32,145.991
3562.64,146.78
3562.95,147.096
3563.26,145.306
3563.57,146.095
3563.89,146.463
3564.2,143.41
3564.51,145.252
3564.82,147.567
3565.13,148.778
3565.45,145.409
3565.76,144.724
3566.07,148.566
3566.38,146.408
3566.69,143.092
3567.01,146.092
3567.32,143.039
3567.63,146.512
3567.94,145.301
3568.25,145.459
3568.56,148.301
3568.88,144.616
3569.19,144.405
3569.5,140.3
3569.81,146.142
3570.12,146.089
3570.43,143.825
3570.75,145.614
3571.06,147.561
3571.37,148.824
3571.68,146.508
3571.99,145.14
3572.3,144.981
3572.62,144.823
3572.93,147.191
3573.24,144.717
3573.55,145.506
3573.86,144.138
3574.17,146.295
3574.49,144.558
3574.8,147.874
3575.11,142.031
3575.42,139.82
3575.73,144.241
3576.04,147.715
3576.35,147.03
3576.66,146.451
3576.98,144.345
3577.29,148.556
3577.6,144.503
3577.91,143.344
3578.22,143.818
3578.53,143.186
3578.84,145.291
3579.15,146.027
3579.46,143.396
3579.78,145.658
3580.09,144.237
3580.4,149.237
3580.71,146.026
3581.02,144.341
3581.33,143.394
3581.64,143.13
3581.95,144.656
3582.26,144.867
3582.57,144.445
3582.88,140.655
3583.2,148.392
3583.51,144.971
3583.82,143.865
3584.13,143.654
3584.44,146.18
3584.75,141.391
3585.06,142.917
3585.37,146.443
3585.68,140.495
3585.99,147.021
3586.3,148.705
3586.61,142.652
3586.92,143.652
3587.23,147.072
3587.55,144.651
3587.86,142.545
3588.17,146.493
3588.48,139.808
3588.79,145.229
3589.1,147.913
3589.41,146.702
3589.72,144.807
3590.03,145.649
3590.34,145.069
3590.65,143.069
3590.96,142.7
3591.27,144.542
3591.58,147.068
3591.89,146.594
3592.2,147.962
3592.51,146.541
3592.82,147.541
3593.13,147.277
3593.44,142.435
3593.75,144.645
3594.06,142.645
3594.37,148.223
3594.68,144.907
3594.99,147.118
3595.3,144.433
3595.61,141.064
3595.92,150.432
3596.23,145.59
3596.54,146.011
3596.85,146.537
3597.16,143.431
3597.47,147.063
3597.78,144.852
3598.09,145.062
3598.4,145.009
3598.71,143.482
3599.02,146.008
3599.33,145.64
3599.64,144.218
3599.95,144.165
3600.26,145.113
3600.57,146.691
3600.88,145.901
3601.19,145.585
3601.5,149.532
3601.8,142.637
3602.11,148.584
3602.42,147.584
3602.73,146.9
3603.04,146.11
3603.35,146.32
3603.66,145.109
3603.97,144.53
3604.28,143.214
3604.59,142.424
3604.9,148.582
3605.21,145.003
3605.52,144.476
3605.83,145.318
3606.14,142.949
3606.45,147.475
3606.75,145.159
3607.06,143.422
3607.37,149.316
3607.68,146.421
3607.99,145.526
3608.3,146.736
3608.61,147.999
3608.92,145.157
3609.23,146.525
3609.53,143.419
3609.84,143.682
3610.15,147.787
3610.46,143.734
3610.77,145.102
3611.08,146.786
3611.39,144.733
3611.7,147.628
3612.01,145.996
3612.32,146.417
3612.62,146.943
3612.93,145.206
3613.24,145.995
3613.55,144.416
3613.86,144.047
3614.17,146.31
3614.48,143.257
3614.78,145.678
3615.09,143.888
3615.4,145.624
3615.71,144.466
3616.02,145.15
3616.33,148.255
3616.64,145.992
3616.94,146.675
3617.25,147.675
3617.56,149.517
3617.87,148.885
3618.18,144.359
3618.49,145.042
3618.79,144.884
3619.1,146.463
3619.41,144.726
3619.72,142.989
3620.03,144.883
3620.34,146.514
3620.64,144.04
3620.95,146.198
3621.26,147.566
3621.57,145.197
3621.88,145.302
3622.18,145.302
3622.49,146.091
3622.8,142.407
3623.11,141.459
3623.42,144.827
3623.72,142.616
3624.03,147.09
3624.34,142.616
3624.65,143.721
3624.96,146.826
3625.26,145.194
3625.57,142.351
3625.88,145.825
3626.19,145.561
3626.49,144.035
3626.8,144.508
3627.11,144.876
3627.42,143.876
3627.73,145.507
3628.03,145.296
3628.34,147.349
3628.65,144.717
3628.96,145.559
3629.26,143.295
3629.57,144.558
3629.88,145.242
3630.19,146.715
3630.49,149.083
3630.8,149.346
3631.11,147.557
3631.42,144.398
3631.72,147.24
3632.03,145.293
3632.34,144.503
3632.65,142.555
3632.95,142.028
3633.26,145.344
3633.57,148.975
3633.88,149.449
3634.18,145.869
3634.49,146.132
3634.8,145.079
3635.1,144.711
3635.41,144.289
3635.72,142.605
3636.02,144.131
3636.33,146.604
3636.64,148.446
3636.95,146.919
3637.25,147.13
3637.56,146.445
3637.87,146.445
3638.17,141.55
3638.48,143.286
3638.79,146.286
3639.1,144.812
3639.4,146.97
3639.71,145.706
3640.02,144.653
3640.32,145.969
3640.63,146.495
3640.94,144.652
3641.24,144.599
3641.55,144.125
3641.86,142.494
3642.16,147.651
3642.47,146.809
3642.78,146.44
3643.08,144.808
3643.39,149.334
3643.7,142.755
3644,144.439
3644.31,145.649
3644.62,144.701
3644.92,145.333
3645.23,146.332
3645.53,145.701
3645.84,148.753
3646.15,144.332
3646.45,147.173
3646.76,145.699
3647.07,145.068
3647.37,145.12
3647.68,143.225
3647.99,146.488
3648.29,144.224
3648.6,142.382
3648.9,145.224
3649.21,145.171
3649.52,144.381
3649.82,143.96
3650.13,145.275
3650.44,145.222
3650.74,145.064
3651.05,141.485
3651.35,142.221
3651.66,144.379
3651.97,144.747
3652.27,141.957
3652.58,145.746
3652.88,146.641
3653.19,144.377
3653.49,147.798
3653.8,145.535
3654.11,147.113
3654.41,146.324
3654.72,139.534
3655.02,145.744
3655.33,146.849
3655.64,144.48
3655.94,144.269
3656.25,144.269
3656.55,146.585
3656.86,147.479
3657.16,145.9
3657.47,144.005
3657.77,145.004
3658.08,144.057
3658.38,145.109
3658.69,145.214
3659,143.424
3659.3,147.529
3659.61,146.476
3659.91,143.213
3660.22,146.528
3660.52,145.949
3660.83,143.528
3661.13,145.37
3661.44,141.106
3661.74,142.948
3662.05,144.685
3662.35,146.105
3662.66,144.052
3662.97,142.473
3663.27,146.052
3663.58,146.157
3663.88,143.209
3664.19,149.051
3664.49,142.787
3664.8,145.524
3665.1,146.208
3665.41,145.365
3665.71,141.997
3666.02,143.944
3666.32,146.207
3666.63,145.68
3666.93,143.153
3667.24,146.206
3667.54,144.469
3667.85,144.732
3668.15,145.205
3668.46,146.941
3668.76,147.941
3669.06,145.52
3669.37,146.309
3669.68,147.046
3669.98,146.782
3670.28,147.098
3670.59,145.15
3670.89,143.834
3671.2,142.412
3671.5,145.096
3671.81,143.464
3672.11,144.096
3672.42,147.99
3672.72,147.148
3673.03,144.516
3673.33,144.568
3673.63,145.515
3673.94,143.305
3674.24,145.041
3674.55,148.62
3674.85,143.725
3675.16,144.356
3675.46,144.672
3675.76,142.092
3676.07,143.723
3676.37,144.302
3676.68,144.46
3676.98,147.038
3677.29,144.828
3677.59,145.827
3677.89,144.459
3678.2,144.827
3678.5,140.563
3678.81,145.3
3679.11,142.615
3679.41,145.878
3679.72,139.457
3680.02,145.035
3680.33,140.246
3680.63,142.877
3680.93,141.877
3681.24,146.613
3681.54,143.56
3681.85,145.455
3682.15,146.033
3682.45,145.823
3682.76,144.98
3683.06,148.085
3683.37,144.401
3683.67,143.348
3683.97,144.453
3684.28,147.294
3684.58,146.663
3684.88,145.294
3685.19,141.873
3685.49,141.767
3685.79,145.661
3686.1,142.661
3686.4,145.608
3686.71,145.555
3687.01,145.081
3687.31,142.081
3687.61,143.344
3687.92,147.291
3688.22,143.659
3688.53,143.185
3688.83,144.501
3689.13,149.395
3689.44,141.289
3689.74,143.973
3690.04,143.289
3690.35,146.078
3690.65,146.709
3690.95,145.498
3691.26,146.182
3691.56,143.34
3691.86,143.603
3692.16,144.339
3692.47,145.023
3692.77,145.444
3693.07,142.865
3693.38,147.022
3693.68,142.759
3693.98,144.706
3694.29,147.337
3694.59,143.021
3694.89,144.337
3695.19,142.915
3695.5,144.336
3695.8,145.967
3696.1,143.388
3696.41,148.125
3696.71,144.335
3697.01,144.703
3697.31,146.44
3697.62,144.124
3697.92,146.755
3698.22,145.07
3698.52,144.702
3698.83,144.754
3699.13,143.438
3699.43,143.385
3699.74,140.858
3700.04,142.121
3700.34,145.595
3700.64,146.384
3700.95,148.068
3701.25,143.699
3701.55,146.488
3701.85,145.225
3702.16,144.33
3702.46,142.435
3702.76,147.171
3703.06,142.171
3703.37,138.802
3703.67,143.749
3703.97,145.38
3704.27,139.906
3704.57,143.906
3704.88,147.748
3705.18,144.695
3705.48,145.326
3705.78,142.484
3706.09,147.852
3706.39,145.852
3706.69,146.273
3706.99,145.956
3707.29,144.588
3707.6,147.061
3707.9,142.271
3708.2,147.692
3708.5,144.902
3708.8,140.218
3709.11,143.849
3709.41,140.217
3709.71,142.112
3710.01,141.006
3710.31,145.269
3710.61,145.321
3710.92,141.795
3711.22,144.058
3711.52,148.005
3711.82,141.741
3712.12,142.215
3712.43,143.372
3712.73,141.161
3713.03,144.582
3713.33,143.424
3713.63,142.897
3713.93,141.686
3714.24,144.634
3714.54,147.896
3714.84,145.791
3715.14,140.475
3715.44,145.159
3715.74,144.316
3716.04,143.316
3716.35,143.579
3716.65,141.842
3716.95,145.368
3717.25,142.788
3717.55,143.367
3717.85,145.472
3718.15,144.577
3718.46,143.471
3718.76,142.734
3719.06,142.102
3719.36,144.365
3719.66,140.944
3719.96,141.733
3720.26,145.207
3720.56,145.048
3720.86,146.574
3721.17,145.258
3721.47,143.153
3721.77,142.152
3722.07,143.415
3722.37,142.783
3722.67,144.362
3722.97,144.256
3723.27,146.835
3723.57,143.73
3723.88,142.835
3724.18,144.729
3724.48,142.939
3724.78,141.571
3725.08,142.886
3725.38,140.991
3725.68,145.043
3725.98,140.359
3726.28,142.095
3726.58,141.937
3726.88,142.621
3727.18,140.042
3727.48,146.568
3727.78,141.883
3728.09,140.304
3728.39,143.462
3728.69,140.83
3728.99,143.408
3729.29,143.934
3729.59,144.671
3729.89,144.099
3730.19,143.301
3730.49,144.658
3730.79,146.463
3731.09,145.388
3731.39,143.528
3731.69,142.307
3731.99,144.189
3732.29,147.865
3732.59,144.611
3732.89,144.261
3733.19,141.836
3733.49,144.018
3733.79,142.967
3734.09,144.289
3734.39,144.374
3734.69,144.085
3734.99,143.805
3735.29,144.333
3735.59,143.146
3735.89,145.098
3736.19,141.587
3736.49,144.592
3736.79,144.386
3737.09,141.436
3737.39,143.107
3737.69,144.003
3737.99,142.883
3738.29,143.742
3738.59,141.619
3738.89,145.271
3739.19,141.241
3739.49,144.269
3739.79,144.406
3740.09,143.226
3740.39,145.125
3740.69,143.43
3740.99,141.915
3741.29,144.711
3741.59,143.165
3741.89,142.292
3742.19,144.765
3742.49,145.692
3742.79,144.267
3743.09,143.918
3743.39,144.529
3743.69,144.381
3743.98,144.291
3744.28,141.176
3744.58,140.931
3744.88,143.73
3745.18,142.707
3745.48,142.539
3745.78,141.603
3746.08,144.115
3746.38,145.129
3746.68,143.465
3746.98,145.569
3747.28,143.887
3747.58,144.382
3747.88,142.031
3748.18,141.841
3748.48,141.247
3748.77,143.477
3749.07,144.937
3749.37,143.145
3749.67,143.499
3749.97,143.693
3750.27,145.965
3750.57,144.032
3750.87,143.024
3751.17,145.254
3751.46,144.346
3751.76,143.55
3752.06,142.277
3752.36,145.5
3752.66,142.974
3752.96,143.951
3753.26,143.317
3753.56,141.481
3753.86,142.122
3754.16,143.551
3754.45,146.974
3754.75,145.639
3755.05,142.659
3755.35,142.603
3755.65,142.858
3755.95,147.586
3756.25,143.64
3756.54,143.146
3756.84,141.126
3757.14,141.855
3757.44,141.736
3757.74,143.001
3758.04,144.245
3758.09,144.476
3758.39,141.79
3758.7,146.526
3759,141.209
3759.3,146.734
3759.61,141.838
3759.91,141.1
3760.21,143.73
3760.51,144.571
3760.82,146.253
3761.12,145.831
3761.42,142.619
3761.73,144.302
3762.03,140.88
3762.33,144.405
3762.63,142.614
3762.94,142.718
3763.24,143.401
3763.54,143.768
3763.84,144.977
3764.15,144.607
3764.45,145.343
3764.75,144.868
3765.05,144.867
3765.36,144.707
3765.66,143.917
3765.96,143.389
3766.26,143.44
3766.57,143.123
3766.87,142.753
3767.17,146.436
3767.47,144.645
3767.78,141.96
3768.08,141.222
3768.38,143.536
3768.68,144.693
3768.99,140.218
3769.29,142.532
3769.59,139.584
3769.89,145.582
3770.19,146.791
3770.5,142.316
3770.8,141.526
3771.1,146.682
3771.4,140.102
3771.7,142.89
3772.01,142.994
3772.31,141.624
3772.61,143.991
3772.91,140.99
3773.21,143.936
3773.52,141.935
3773.82,142.618
3774.12,141.248
3774.42,144.457
3774.72,142.351
3775.03,141.244
3775.33,145.506
3775.63,141.294
3775.93,142.924
3776.23,143.66
3776.53,142.606
3776.84,144.236
3777.14,140.972
3777.44,142.181
3777.74,140.285
3778.04,141.81
3778.34,145.072
3778.65,140.807
3778.95,143.279
3779.25,146.278
3779.55,143.803
3779.85,144.749
3780.15,144.906
3780.45,142.01
3780.76,144.482
3781.06,143.639
3781.36,146.953
3781.66,144.583
3781.96,146.529
3782.26,143.633
3782.56,144.737
3782.87,146.262
3783.17,144.156
3783.47,145.049
3783.77,144.627
3784.07,142.31
3784.37,142.203
3784.67,143.675
3784.97,142.411
3785.27,142.357
3785.58,143.514
3785.88,143.354
3786.18,143.827
3786.48,141.825
3786.78,144.508
3787.08,140.56
3787.38,141.558
3787.68,140.031
3787.98,142.661
3788.29,141.975
3788.58,143.395
3788.89,142.499
3789.19,141.024
3789.49,141.707
3789.79,145.653
3790.09,140.967
3790.39,146.071
3790.69,141.807
3790.99,144.174
3791.29,141.804
3791.59,140.698
3791.89,139.696
3792.19,144.327
3792.5,142.43
3792.8,139.587
3793.1,144.112
3793.4,145.005
3793.7,136.846
3794,142.687
3794.3,139.791
3794.6,145.421
3794.9,140.841
3795.2,141.576
3795.5,148.417
3795.8,143.89
3796.1,140.888
3796.4,141.834
3796.7,140.886
3797,142.463
3797.3,142.672
3797.6,140.724
3797.9,142.67
3798.2,144.405
3798.5,139.562
3798.8,141.929
3799.1,143.77
3799.4,145.4
3799.7,142.346
3800,143.608
3800.3,140.291
3800.6,142.237
3800.9,142.446
3801.2,142.761
3801.5,140.075
3801.8,141.705
3802.1,139.809
3802.4,143.755
3802.7,144.543
3803,140.595
3803.3,138.278
3803.6,143.539
3803.9,145.38
3804.2,141.853
3804.5,141.325
3804.8,138.692
3805.1,144.533
3805.4,141.795
3805.7,141.635
3806,142.424
3806.3,145.422
3806.6,144.21
3806.9,144.578
3807.2,139.892
3807.5,141.154
3807.8,142.31
3808.1,141.362
3808.4,142.624
3808.7,139.412
3809,147.726
3809.3,142.462
3809.6,140.25
3809.89,143.091
3810.19,142.563
3810.49,140.93
3810.79,146.35
3811.09,139.348
3811.39,144.61
3811.69,142.293
3811.99,144.976
3812.29,140.343
3812.59,142.079
3812.89,141.814
3813.19,141.813
3813.49,140.285
3813.79,144.073
3814.08,143.914
3814.38,142.597
3814.68,140.912
3814.98,142.7
3815.28,142.277
3815.58,139.013
3815.88,141.327
3816.18,145.326
3816.48,140.693
3816.78,144.639
3817.08,144.322
3817.37,140.952
3817.67,142.688
3817.97,139.844
3818.27,143.054
3818.57,142.947
3818.87,145.156
3819.17,142.523
3819.47,141.996
3819.76,143.205
3820.06,143.467
3820.36,142.729
3820.66,139.78
3820.96,139.831
3821.26,141.146
3821.56,141.986
3821.85,142.406
3822.15,142.3
3822.45,142.246
3822.75,140.034
3823.05,143.138
3823.35,144.821
3823.65,144.767
3823.94,141.134
3824.24,139.922
3824.54,143.763
3824.84,146.235
3825.14,144.076
3825.44,139.864
3825.73,140.863
3826.03,139.388
3826.33,141.702
3826.63,146.069
3826.93,142.805
3827.22,139.593
3827.52,143.328
3827.82,141.959
3828.12,142.168
3828.42,142.061
3828.72,143.797
3829.01,143.743
3829.31,142.636
3829.61,143.845
3829.91,140.844
3830.21,141.053
3830.5,140.789
3830.8,143.577
3831.1,141.734
3831.4,144.101
3831.7,140.52
3831.99,142.309
3832.29,140.307
3832.59,142.674
3832.89,143.357
3833.19,143.409
3833.48,145.039
3833.78,138.564
3834.08,143.826
3834.38,141.614
3834.67,145.033
3834.97,144.453
3835.27,141.715
3835.57,140.03
3835.86,142.186
3836.16,141.132
3836.46,141.499
3836.76,144.972
3837.05,143.286
3837.35,140.443
3837.65,142.073
3837.95,140.072
3838.24,143.281
3838.54,141.279
3838.84,142.541
3839.14,142.645
3839.43,145.012
3839.73,141.695
3840.03,142.431
3840.33,145.903
3840.62,142.586
3840.92,141.9
3841.22,139.741
3841.51,142.056
3841.81,142.686
3842.11,142.421
3842.41,142.683
3842.7,139.945
3843,144.049
3843.3,142.627
3843.6,139.046
3843.89,143.835
3844.19,141.518
3844.49,142.674
3844.78,141.146
3845.08,144.777
3845.38,139.986
3845.67,140.3
3845.97,140.983
3846.27,143.087
3846.56,139.981
3846.86,140.664
3847.16,143.294
3847.46,140.029
3847.75,141.028
3848.05,140.027
3848.35,139.446
3848.64,140.445
3848.94,141.233
3849.23,141.548
3849.53,145.073
3849.83,142.071
3850.13,142.702
3850.42,144.384
3850.72,145.699
3851.02,143.224
3851.31,142.012
3851.61,140.169
3851.91,141.904
3852.2,141.166
3852.5,143.744
3852.79,143.479
3853.09,141.688
3853.39,138.792
3853.68,142.844
3853.98,143.105
3854.28,139.841
3854.57,143.787
3854.87,146.786
3855.16,142.942
3855.46,143.836
3855.76,141.887
3856.05,143.307
3856.35,139.937
3856.65,141.567
3856.94,141.882
3857.24,140.512
3857.53,140.247
3857.83,141.615
3858.13,143.087
3858.42,143.138
3858.72,142.663
3859.01,146.767
3859.31,140.818
3859.61,145.08
3859.9,139.553
3860.2,140.499
3860.49,144.392
3860.79,144.549
3861.09,142.495
3861.38,139.809
3861.68,144.597
3861.97,144.543
3862.27,138.174
3862.56,141.12
3862.86,144.645
3863.16,140.854
3863.45,142.379
3863.75,141.851
3864.04,140.482
3864.34,141.007
3864.63,144.268
3864.93,143.583
3865.23,140.687
3865.52,142.159
3865.82,143.053
3866.11,143.683
3866.41,144.418
3866.7,140.206
3867,141.626
3867.29,143.257
3867.59,144.834
3867.88,142.728
3868.18,141.884
3868.47,142.725
3868.77,141.355
3869.07,144.617
3869.36,139.984
3869.66,142.035
3869.95,142.508
3870.25,141.349
3870.54,141.189
3870.84,142.451
3871.13,143.45
3871.43,141.133
3871.72,145.605
3872.02,144.235
3872.31,143.445
3872.61,142.233
3872.9,141.021
3873.2,144.493
3873.49,142.229
3873.79,143.648
3874.08,145.437
3874.38,146.435
3874.67,139.487
3874.97,142.327
3875.26,145.431
3875.56,142.219
3875.85,142.797
3876.15,143.006
3876.44,143.689
3876.74,143.898
3877.03,141.423
3877.33,143.106
3877.62,139.579
3877.92,143.84
3878.21,139.418
3878.5,140.575
3878.8,144.205
3879.09,140.888
3879.39,141.729
3879.68,141.622
3879.98,145.779
3880.27,143.83
3880.57,142.355
3880.86,143.038
3881.15,139.405
3881.45,145.246
3881.74,142.244
3882.04,141.717
3882.33,141.663
3882.63,145.661
3882.92,144.45
3883.22,146.132
3883.51,145.605
3883.8,140.604
3884.1,141.234
3884.39,143.39
3884.69,142.757
3884.98,142.388
3885.28,139.228
3885.57,145.438
3885.86,140.226
3886.16,142.067
3886.45,142.276
3886.75,141.59
3887.04,143.536
3887.33,143.693
3887.63,140.639
3887.92,142.48
3888.22,143.163
3888.51,143.53
3888.8,143.581
3889.1,142.474
3889.39,142.842
3889.69,143.524
3889.98,145.628
3890.27,139.89
3890.57,141.678
3890.86,140.677
3891.15,147.044
3891.45,141.148
3891.74,142.305
3892.04,143.672
3892.33,142.513
3892.62,141.88
3892.92,145.352
3893.21,143.877
3893.5,141.823
3893.8,141.769
3894.09,145.084
3894.39,143.451
3894.68,140.555
3894.97,144.553
3895.26,144.71
3895.56,142.077
3895.85,144.023
3896.15,140.337
3896.44,141.81
3896.73,142.861
3897.03,145.333
3897.32,139.648
3897.61,145.068
3897.9,144.908
3898.2,141.907
3898.49,143.274
3898.79,144.694
3899.08,142.114
3899.37,143.691
3899.66,147.164
3899.96,144.689
3900.25,144.372
3900.54,142.16
3900.84,144.158
3901.13,147.104
3901.42,144.524
3901.72,144.628
3902.01,140.89
3902.3,145.678
3902.59,145.203
3902.89,142.886
3903.18,141.727
3903.47,144.252
3903.77,145.408
3904.06,140.407
3904.35,142.616
3904.65,141.931
3904.94,141.614
3905.23,142.139
3905.52,143.558
3905.82,142.557
3906.11,144.766
3906.4,145.028
3906.69,146.395
3906.99,144.552
3907.28,142.077
3907.57,146.602
3907.87,142.969
3908.16,144.02
3908.45,144.703
3908.74,145.438
3909.04,141.437
3909.33,143.225
3909.62,141.961
3909.91,147.17
3910.21,143.59
3910.5,145.588
3910.79,144.113
3911.08,141.059
3911.37,144.374
3911.67,145.794
3911.96,143.371
3912.25,144.475
3912.54,141.263
3912.84,142.42
3913.13,144.892
3913.42,141.575
3913.71,144.416
3914.01,145.625
3914.3,138.834
3914.59,143.938
3914.88,144.569
3915.17,142.515
3915.46,139.829
3915.76,145.512
3916.05,146.774
3916.34,141.562
3916.63,143.561
3916.93,145.086
3917.22,143.19
3917.51,142.136
3917.8,144.398
3918.09,146.659
3918.38,143.553
3918.68,141.92
3918.97,144.34
3919.26,142.601
3919.55,141.232
3919.84,143.388
3920.14,141.703
3920.43,141.859
3920.72,141.068
3921.01,143.12
3921.3,141.908
3921.59,139.854
3921.89,142.589
3922.18,142.904
3922.47,143.482
3922.76,139.27
3923.05,144.426
3923.34,142.846
3923.63,140.792
3923.93,142.054
3924.22,142.632
3924.51,143.209
3924.8,139.892
3925.09,141.628
3925.38,144.679
3925.67,139.941
3925.97,146.939
3926.26,146.149
3926.55,144.358
3926.84,142.304
3927.13,144.776
3927.42,142.249
3927.71,143.458
3928,142.404
3928.3,138.508
3928.59,142.717
3928.88,146.295
3929.17,143.135
3929.46,143.66
3929.75,147.764
3930.04,143.237
3930.33,143.235
3930.62,142.971
3930.91,140.496
3931.21,141.652
3931.5,142.02
3931.79,141.913
3932.08,146.28
3932.37,143.226
3932.66,143.067
3932.95,145.118
3933.24,146.275
3933.53,142.116
3933.82,141.272
3934.11,143.534
3934.41,141.059
3934.7,144.794
3934.99,144.477
3935.28,144.844
3935.57,142.054
3935.86,143.737
3936.15,148.735
3936.44,146.523
3936.73,140.469
3937.02,145.994
3937.31,139.309
3937.6,148.413
3937.89,146.043
3938.18,147.568
3938.47,144.462
3938.76,145.618
3939.05,145.617
3939.34,144.247
3939.63,146.351
3939.92,145.823
3940.22,144.348
3940.51,141.979
3940.8,144.293
3941.09,143.344
3941.38,143.448
3941.67,144.605
3941.96,146.498
3942.25,144.55
3942.54,143.548
3942.83,143.073
3943.12,144.546
3943.41,142.597
3943.7,147.227
3943.99,142.121
3944.28,145.488
3944.57,142.223
3944.86,144.643
3945.15,140.378
3945.44,146.693
3945.73,143.692
3946.02,146.217
3946.31,146.689
3946.6,141.582
3946.89,141.423
3947.18,145.159
3947.47,141.526
3947.76,147.103
3948.05,144.839
3948.34,145.995
3948.63,145.889
3948.91,145.73
3949.21,142.413
3949.49,144.569
3949.78,146.884
3950.07,144.409
3950.36,142.618
3950.65,142.774
3950.94,143.51
3951.23,142.298
3951.52,142.77
3951.81,143.822
3952.1,142.768
3952.39,141.556
3952.68,143.291
3952.97,142.448
3953.26,144.289
3953.55,146.603
3953.84,143.497
3954.13,142.495
3954.42,144.02
3954.7,140.598
3954.99,142.649
3955.28,143.595
3955.57,143.594
3955.86,141.593
3956.15,141.907
3956.44,141.906
3956.73,142.115
3957.02,145.693
3957.31,141.428
3957.6,144.848
3957.89,140.689
3958.18,138.687
3958.46,143.37
3958.75,145.632
3959.04,145.052
3959.33,142.893
3959.62,140.786
3959.91,143.522
3960.2,142.468
3960.49,139.677
3960.78,146.465
3961.06,140.358
3961.35,143.304
3961.64,142.882
3961.93,146.249
3962.22,146.827
3962.51,142.825
3962.8,143.245
3963.09,142.402
3963.37,143.927
3963.66,144.662
3963.95,145.082
3964.24,142.765
3964.53,141.553
3964.82,140.446
3965.11,143.761
3965.39,141.075
3965.68,142.179
3965.97,140.915
3966.26,144.65
3966.55,141.491
3966.84,138.49
3967.13,142.436
3967.41,140.856
3967.7,140.275
3967.99,143.958
3968.28,147.01
3968.57,139.219
3968.86,142.428
3969.14,144.427
3969.43,138.583
3969.72,139.582
3970.01,139.212
3970.3,142.421
3970.59,141.683
3970.87,141.208
3971.16,144.312
3971.45,142.153
3971.74,142.309
3972.03,141.834
3972.31,143.781
3972.6,141.2
3972.89,141.094
3973.18,143.461
3973.47,144.512
3973.75,142.511
3974.04,145.088
3974.33,143.508
3974.62,144.191
3974.91,141.453
3975.19,141.715
3975.48,142.082
3975.77,142.238
3976.06,141.553
3976.35,143.341
3976.63,141.708
3976.92,140.654
3977.21,141.179
3977.5,143.915
3977.78,141.071
3978.07,142.912
3978.36,142.7
3978.65,141.962
3978.93,141.697
3979.22,142.749
3979.51,143.379
3979.8,141.115
3980.08,146.113
3980.37,142.849
3980.66,142.005
3980.95,138.057
3981.23,143.582
3981.52,142.949
3981.81,145.368
3982.1,142.841
3982.38,144.997
3982.67,141.101
3982.96,141.784
3983.25,144.257
3983.53,141.045
3983.82,140.78
3984.11,145.305
3984.39,145.883
3984.68,140.303
3984.97,139.985
3985.26,141.879
3985.54,143.246
3985.83,141.613
3986.12,145.243
3986.41,146.821
3986.69,142.925
3986.98,140.239
3987.27,146.501
3987.55,143.079
3987.84,141.183
3988.13,136.55
3988.41,142.496
3988.7,141.705
3988.99,143.335
3989.27,142.176
3989.56,136.964
3989.85,144.489
3990.13,143.383
3990.42,139.697
3990.71,143.222
3990.99,140.958
3991.28,142.062
3991.57,142.639
3991.86,141.533
3992.14,141.005
3992.43,140.741
3992.72,143.266
3993,142.106
3993.29,143.21
3993.58,141.525
3993.86,138.155
3994.15,142.68
3994.43,140.363
3994.72,138.993
3995.01,143.413
3995.29,141.833
3995.58,143.042
3995.87,138.514
3996.15,143.25
3996.44,144.301
3996.73,144.879
3997.01,142.456
3997.3,140.244
3997.58,141.033
3997.87,140.715
3998.16,145.24
3998.44,142.45
3998.73,144.554
3999.02,140.447
3999.3,139.393
3999.59,141.76
3999.87,145.39
