raman_shift, int
cm^-1, a.u.
850.38,77.364
850.86,82.636
851.33,83.909
851.81,84.091
852.28,84.273
852.76,84.091
853.23,81.182
853.7,85.727
854.18,84.455
854.65,85.545
855.13,85.545
855.6,84.636
856.08,87
856.55,81.364
857.02,83
857.5,83.545
857.97,83.364
858.45,84.818
858.92,87.182
859.39,88.454
859.87,82.818
860.34,82.454
860.82,82.818
861.29,85
861.76,85.909
862.24,84.454
862.71,86.455
863.18,85.546
863.66,83.727
864.13,85.182
864.6,82.454
865.08,84.455
865.55,84.455
866.02,83.364
866.5,79.727
866.97,85.364
867.45,81.182
867.92,83.364
868.39,85.182
868.87,80.273
869.34,79.545
869.81,79.182
870.28,79
870.76,83.909
871.23,82.636
871.7,85.545
872.18,81
872.65,81.727
873.12,85.909
873.59,82.091
874.07,78.454
874.54,79.546
875.01,79.182
875.49,81.546
875.96,80.273
876.43,73.364
876.9,77
877.38,82.091
877.85,78.636
878.32,81.364
878.79,76.091
879.27,77.727
879.74,74.455
880.21,76.454
880.68,72.818
881.15,71.727
881.63,72.091
882.1,71.909
882.57,72.091
883.04,72.818
883.52,74.273
883.99,73.364
884.46,69.182
884.93,67.546
885.4,72.454
885.88,69.364
886.35,77.909
886.82,73.727
887.29,71.364
887.76,71
888.24,73.182
888.71,70.454
889.18,72.273
889.65,75
890.12,72.818
890.59,71.909
891.07,72.455
891.54,67.727
892.01,71
892.48,69
892.95,70.454
893.42,70.091
893.89,70.091
894.37,71.546
894.84,69.727
895.31,66.818
895.78,71.909
896.25,72.273
896.72,70.636
897.19,71.182
897.66,69.182
898.13,71.364
898.61,70.273
899.08,71.182
899.55,69.909
900.02,74.636
900.49,74.273
900.96,71.727
901.43,71.909
901.9,71.364
902.37,72.636
902.84,68.636
903.31,70.091
903.78,72.454
904.26,65.546
904.73,67.182
905.2,70.273
905.67,67.909
906.14,71.727
906.61,71.182
907.08,71.182
907.55,73
908.02,70.091
908.49,70.636
908.96,70.273
909.43,67.545
909.9,70.636
910.37,69.909
910.84,74.636
911.31,71.364
911.78,70.818
912.25,73.182
912.72,71.364
913.19,71.546
913.66,74.273
914.13,69.364
914.6,70.273
915.07,70.818
915.54,70.273
916.01,69.727
916.48,71.727
916.95,69
917.42,67.182
917.89,70.091
918.36,67.727
918.83,67.909
919.29,69.727
919.76,72.636
920.23,69
920.7,72.273
921.17,62.636
921.64,67.546
922.11,72.273
922.58,69
923.05,69
923.52,69
923.99,68.091
924.46,70.454
924.92,69.182
925.39,70.636
925.86,71
926.33,69.364
926.8,67.546
927.27,68.091
927.74,69.364
928.21,69.727
928.68,67.182
929.14,65.727
929.61,66.818
930.08,68.273
930.55,66.273
931.02,67.546
931.49,66.273
931.96,65.182
932.42,69.727
932.89,69.909
933.36,68.818
933.83,66.818
934.3,64.454
934.77,64.454
935.23,64.818
935.7,66.818
936.17,62.818
936.64,61.182
937.11,70.636
937.58,62.091
938.04,67
938.51,67
938.98,63.727
939.45,67
939.91,63.364
940.38,62.273
940.85,65.909
941.32,63.364
941.79,63
942.25,64.636
942.72,60.818
943.19,64.636
943.66,62.818
944.12,62.636
944.59,64.454
945.06,63.909
945.53,65.727
946,61.909
946.46,61.727
946.93,63
947.4,64.636
947.86,63
948.33,63.182
948.8,62.273
949.26,61.909
949.73,65.909
950.2,64.091
950.67,64.818
951.13,61.364
951.6,63.727
952.07,61.364
952.53,62.273
953,60.273
953.47,62.818
953.93,67.364
954.4,61.909
954.87,62.455
955.33,64.091
955.8,59.727
956.27,61.182
956.74,59
957.2,63.364
957.67,60.636
958.13,61.182
958.6,57.364
959.07,62.091
959.53,58.636
960,61.182
960.47,60.091
960.93,62.091
961.4,59.909
961.87,60.818
962.33,60.273
962.8,57.364
963.26,57.364
963.73,62.091
964.2,55.909
964.66,59.364
965.13,60.636
965.59,60.818
966.06,59.727
966.52,58.818
966.99,61
967.46,57.545
967.92,55.545
968.39,61.364
968.86,61.182
969.32,61.182
969.78,61.545
970.25,59.364
970.72,61.182
971.18,60.818
971.65,55.364
972.11,57.909
972.58,60.273
973.04,56.636
973.51,53.182
973.98,57
974.44,58.273
974.9,55.727
975.37,55.909
975.84,55.364
976.3,57.909
976.77,57
977.23,54.636
977.7,56.273
978.16,60.636
978.63,57.364
979.09,59.182
979.56,58.091
980.02,58.818
980.49,60.273
980.95,59.727
981.41,60.273
981.88,55.545
982.35,62.091
982.81,56.636
983.27,59
983.74,59
984.2,55.364
984.67,59.909
985.13,55.909
985.6,56.273
986.06,58.455
986.52,59.909
986.99,55.545
987.45,56.636
987.92,55.545
988.38,57.182
988.85,55.364
989.31,56.818
989.78,53.182
990.24,57.727
990.7,55.182
991.17,55.727
991.63,53.364
992.1,56.091
992.56,60.273
993.02,53.909
993.49,57.182
993.95,59.364
994.41,57.182
994.88,53
995.34,53.545
995.8,62.091
996.27,58.455
996.73,56.091
997.2,54.091
997.66,55
998.12,55.182
998.59,54.636
999.05,52.818
999.51,55.182
999.98,56.636
1000.4,55
1000.9,54.818
1001.4,57.182
1001.8,54.273
1002.3,55.182
1002.8,52.636
1003.2,52.818
1003.7,54.818
1004.1,57.909
1004.6,54.273
1005.1,55.909
1005.5,55.182
1006,55.182
1006.5,56.636
1006.9,54.455
1007.4,54.091
1007.9,51.727
1008.3,55.182
1008.8,57.545
1009.2,57.545
1009.7,53
1010.2,55.182
1010.6,53.545
1011.1,52.273
1011.5,54.636
1012,51.364
1012.5,58.091
1012.9,58.091
1013.4,52.273
1013.9,55.545
1014.3,58.818
1014.8,55
1015.2,56.273
1015.7,55.182
1016.2,54.455
1016.6,57
1017.1,55
1017.6,55.545
1018,54.818
1018.5,54.455
1018.9,55.182
1019.4,56.273
1019.9,57.182
1020.3,59.364
1020.8,59.545
1021.2,57.182
1021.7,57.545
1022.2,59.545
1022.6,56.818
1023.1,58.455
1023.6,57.182
1024,57.182
1024.5,57.182
1025,59.364
1025.4,57
1025.9,63.727
1026.3,65.364
1026.8,59.364
1027.2,58.091
1027.7,61.545
1028.2,61
1028.6,59
1029.1,62.091
1029.6,59.182
1030,62.455
1030.5,63.909
1030.9,65.182
1031.4,62.636
1031.9,63.909
1032.3,64.818
1032.8,69
1033.2,68.818
1033.7,69.364
1034.2,71.364
1034.6,69
1035.1,65
1035.5,67.727
1036,71.909
1036.5,70.636
1036.9,68.091
1037.4,70.454
1037.8,69
1038.3,65.727
1038.8,71.364
1039.2,69
1039.7,71.364
1040.2,68.273
1040.6,67.546
1041.1,68.454
1041.5,71.909
1042,68.636
1042.5,70.455
1042.9,70.636
1043.4,63.727
1043.8,65.909
1044.3,68.818
1044.8,64.818
1045.2,66.091
1045.7,64.455
1046.1,64.273
1046.6,69.182
1047.1,64.818
1047.5,68.454
1048,71.182
1048.4,66.818
1048.9,67.909
1049.4,69.546
1049.8,70.818
1050.3,71.182
1050.7,68.818
1051.2,76.454
1051.7,70.273
1052.1,78.455
1052.6,76.636
1053,78.455
1053.5,83.546
1054,83.182
1054.4,87.727
1054.9,87.545
1055.3,91.546
1055.8,93.182
1056.2,93.182
1056.7,100.45
1057.2,103.36
1057.6,108.82
1058.1,113.55
1058.5,119.55
1059,119.73
1059.5,127.91
1059.9,140.82
1060.4,140.09
1060.8,148.09
1061.3,149
1061.8,152.46
1062.2,167.73
1062.7,173.18
1063.1,174.46
1063.6,185.91
1064,188.82
1064.5,195.36
1065,204.64
1065.4,210.09
1065.9,224.09
1066.3,222.82
1066.8,233.91
1067.2,240.64
1067.7,247.54
1068.2,259.18
1068.6,268.27
1069.1,271
1069.5,276.27
1070,286.27
1070.5,290.64
1070.9,301.36
1071.4,307.36
1071.8,311
1072.3,323.18
1072.8,326.27
1073.2,333.18
1073.7,334.09
1074.1,347
1074.6,354.64
1075,356.64
1075.5,353
1076,364.64
1076.4,365
1076.9,367.18
1077.3,370.09
1077.8,379.36
1078.2,382.45
1078.7,373.55
1079.2,379.36
1079.6,380.09
1080.1,377.18
1080.5,377.73
1081,382.82
1081.4,375.18
1081.9,371
1082.4,368.09
1082.8,360.64
1083.3,368.27
1083.7,365.36
1084.2,358.27
1084.6,359
1085.1,358.09
1085.6,353
1086,339.73
1086.5,329.36
1086.9,329.73
1087.4,317.55
1087.8,304.45
1088.3,297.73
1088.8,296.09
1089.2,280.27
1089.7,267.55
1090.1,257.55
1090.6,247.54
1091,233.91
1091.5,229
1092,206.46
1092.4,198.64
1092.9,182.64
1093.3,171.18
1093.8,166.27
1094.2,150.64
1094.7,144.46
1095.1,128.27
1095.6,121.36
1096.1,113.91
1096.5,110.27
1097,100.82
1097.4,95.545
1097.9,87.727
1098.3,84.091
1098.8,81.545
1099.2,77.546
1099.7,74.273
1100.2,70.454
1100.6,68.273
1101.1,64.818
1101.5,65.727
1102,60.455
1102.4,58.273
1102.9,59.364
1103.3,57.182
1103.8,56.455
1104.3,54.636
1104.7,53.364
1105.2,54.273
1105.6,53.545
1106.1,54.455
1106.5,51.727
1107,49.909
1107.5,53.364
1107.9,49.182
1108.4,54.636
1108.8,49.727
1109.3,49.545
1109.7,49.727
1110.2,51.909
1110.6,50.455
1111.1,52.273
1111.5,52.455
1112,47.909
1112.5,49.909
1112.9,50.636
1113.4,48.455
1113.8,51.909
1114.3,48.273
1114.7,49
1115.2,50.636
1115.6,51
1116.1,46.273
1116.5,47.727
1117,47
1117.5,49
1117.9,49
1118.4,51.182
1118.8,52.273
1119.3,45.727
1119.7,50.273
1120.2,47.909
1120.6,49.545
1121.1,43.364
1121.5,45.182
1122,45
1122.5,44.091
1122.9,47.364
1123.4,49.182
1123.8,44.273
1124.3,43.727
1124.7,46.455
1125.2,52.455
1125.6,48.091
1126.1,49.909
1126.5,47.364
1127,45.909
1127.4,47.909
1127.9,46.273
1128.3,50.455
1128.8,46.455
1129.3,48.455
1129.7,44.273
1130.2,46.091
1130.6,45.182
1131.1,46.636
1131.5,47.182
1132,46.636
1132.4,48.818
1132.9,45
1133.3,47
1133.8,46.636
1134.2,46.455
1134.7,43.364
1135.2,47.727
1135.6,46.091
1136.1,45.545
1136.5,46.273
1137,47.545
1137.4,44.091
1137.9,43.727
1138.3,42.273
1138.8,50.455
1139.2,45.545
1139.7,46.273
1140.1,45.364
1140.6,43
1141,49.909
1141.5,44.455
1142,48.091
1142.4,43.727
1142.8,44.818
1143.3,41.545
1143.8,46.273
1144.2,45.545
1144.7,46.455
1145.1,43.364
1145.6,45.909
1146,44.636
1146.5,44.455
1146.9,46.818
1147.4,42.636
1147.8,46.636
1148.3,46.818
1148.7,45
1149.2,40.455
1149.6,43.909
1150.1,47
1150.5,50.273
1151,43.545
1151.4,43
1151.9,46.636
1152.3,43.909
1152.8,42.455
1153.2,41
1153.7,41.545
1154.2,45.545
1154.6,45.545
1155.1,47.182
1155.5,46.273
1156,42.636
1156.4,42.273
1156.9,42.636
1157.3,43.364
1157.8,44.818
1158.2,40.818
1158.7,41.364
1159.1,43.545
1159.6,42.091
1160,45
1160.5,43.727
1160.9,45
1161.4,44.091
1161.8,40.273
1162.3,42.091
1162.7,43.364
1163.2,43.545
1163.6,45.727
1164.1,38.273
1164.5,40.273
1165,45.727
1165.4,42.455
1165.9,42.818
1166.3,41.182
1166.8,43.545
1167.2,42.273
1167.7,43.364
1168.1,41.364
1168.6,38.818
1169,45.727
1169.5,42.818
1169.9,41.545
1170.4,42.273
1170.8,40.273
1171.3,41.182
1171.7,44.091
1172.2,44.636
1172.6,41.909
1173.1,42.273
1173.5,36.818
1174,41
1174.5,41
1174.9,44.273
1175.3,42.636
1175.8,48.091
1176.2,41.182
1176.7,43.182
1177.2,42.091
1177.6,41
1178,42.273
1178.5,42.091
1179,42.091
1179.4,42.636
1179.8,43.364
1180.3,40.818
1180.8,43.182
1181.2,42.818
1181.6,42.818
1182.1,41.364
1182.5,41.364
1183,40.818
1183.4,43
1183.9,41.364
1184.3,41.545
1184.8,41.182
1185.2,37
1185.7,38.273
1186.1,38.455
1186.6,43.182
1187,42.273
1187.5,37.727
1187.9,39.364
1188.4,41.182
1188.8,41.909
1189.3,44.091
1189.7,39
1190.2,42.091
1190.6,39.364
1191.1,39.545
1191.5,39
1192,41
1192.4,43
1192.9,43.545
1193.3,41.909
1193.8,40.636
1194.2,39.909
1194.7,41.182
1195.1,41.182
1195.6,41.545
1196,39.909
1196.5,41.182
1196.9,40.455
1197.4,38.818
1197.8,39.182
1198.3,43
1198.7,41.727
1199.2,39
1199.6,40.091
1200,44.091
1200.5,41.364
1201,39.182
1201.4,38.455
1201.8,41.182
1202.3,40.455
1202.7,41.727
1203.2,39.727
1203.6,43
1204.1,40.091
1204.5,38.818
1205,40.636
1205.4,39
1205.9,41.364
1206.3,41.182
1206.8,40.455
1207.2,40.818
1207.7,39.909
1208.1,40.455
1208.6,39.909
1209,36.455
1209.5,41.545
1209.9,43.545
1210.3,42.091
1210.8,41.364
1211.2,38.818
1211.7,39.364
1212.1,35.727
1212.6,38.818
1213,40.636
1213.5,37.909
1213.9,39.182
1214.4,39.545
1214.8,35.364
1215.3,41
1215.7,39.909
1216.2,42.636
1216.6,38.818
1217.1,38.636
1217.5,41
1218,41.727
1218.4,40.091
1218.8,38.455
1219.3,43.182
1219.7,38.636
1220.2,40.273
1220.6,41
1221.1,39.909
1221.5,39.727
1222,39.545
1222.4,36.818
1222.9,40.273
1223.3,39.182
1223.8,40.636
1224.2,40.636
1224.7,39.545
1225.1,40.818
1225.5,41.364
1226,40.455
1226.4,39.364
1226.9,40.273
1227.3,40.818
1227.8,39
1228.2,39.182
1228.7,38.818
1229.1,40.818
1229.6,39.545
1230,38.818
1230.5,39.364
1230.9,39.182
1231.3,40.455
1231.8,42.636
1232.2,41.727
1232.7,39.545
1233.1,40.091
1233.6,40.273
1234,39.727
1234.5,41.727
1234.9,38.455
1235.3,40.818
1235.8,38.091
1236.2,38.455
1236.7,40.455
1237.1,45.364
1237.6,43
1238,39
1238.5,43.182
1238.9,41.545
1239.4,38.273
1239.8,40.091
1240.2,43.727
1240.7,42.273
1241.1,44.091
1241.6,41
1242,39.909
1242.5,42.636
1242.9,41.364
1243.4,41
1243.8,37.727
1244.3,42.636
1244.7,44.091
1245.2,39.727
1245.6,44.273
1246,43.545
1246.5,45.364
1246.9,43.545
1247.4,46.455
1247.8,45.727
1248.3,43.909
1248.7,44.273
1249.2,46.273
1249.6,50.455
