raman_shift, int
cm^-1, a.u.
850.38,76.091
850.86,78.273
851.33,78.273
851.81,72.091
852.28,81
852.76,77.546
853.23,79.364
853.7,77.182
854.18,80.818
854.65,82.091
855.13,82.091
855.6,80.818
856.08,79.364
856.55,82.454
857.02,78.818
857.5,80.091
857.97,87.182
858.45,83.546
858.92,87
859.39,83.182
859.87,83.182
860.34,88.818
860.82,82.636
861.29,81.182
861.76,82.818
862.24,83.909
862.71,82.818
863.18,81.182
863.66,82.091
864.13,78.818
864.6,82.636
865.08,77.909
865.55,79.909
866.02,80.636
866.5,79.909
866.97,80.818
867.45,80.454
867.92,77.364
868.39,77
868.87,77.909
869.34,84.273
869.81,76.818
870.28,75.546
870.76,77.909
871.23,74.818
871.7,74.455
872.18,76.273
872.65,78.273
873.12,73.909
873.59,72.636
874.07,72.818
874.54,72.454
875.01,74.818
875.49,76.636
875.96,74.818
876.43,71.182
876.9,72.091
877.38,71.364
877.85,72.454
878.32,71.727
878.79,70.636
879.27,71.182
879.74,70.091
880.21,71.727
880.68,65.364
881.15,68.636
881.63,69.364
882.1,69.546
882.57,66.455
883.04,70.091
883.52,66.636
883.99,68.273
884.46,64.818
884.93,65.182
885.4,68.818
885.88,66.273
886.35,59.545
886.82,66.091
887.29,61.727
887.76,62.636
888.24,61.545
888.71,63.364
889.18,67.364
889.65,63.545
890.12,64.454
890.59,59.364
891.07,64.091
891.54,60.636
892.01,59
892.48,62.818
892.95,61.182
893.42,64.818
893.89,60.636
894.37,65
894.84,65.909
895.31,65.727
895.78,65.727
896.25,64.818
896.72,63.909
897.19,58.636
897.66,64.455
898.13,62.636
898.61,59.364
899.08,66.818
899.55,65.727
900.02,61.909
900.49,63.182
900.96,63.545
901.43,63.909
901.9,60.818
902.37,66.091
902.84,62.636
903.31,65.545
903.78,64.636
904.26,62.636
904.73,64.273
905.2,59.182
905.67,65.909
906.14,64.091
906.61,61.364
907.08,65
907.55,65.364
908.02,59.909
908.49,59.727
908.96,66.455
909.43,65.545
909.9,63.364
910.37,60.818
910.84,65.546
911.31,61.909
911.78,68.091
912.25,63.727
912.72,63.909
913.19,63.727
913.66,63.364
914.13,59.364
914.6,63.727
915.07,61.909
915.54,64.091
916.01,61.182
916.48,64.273
916.95,62.636
917.42,60.636
917.89,63
918.36,63.364
918.83,61
919.29,60.273
919.76,62.091
920.23,63
920.7,63.909
921.17,58.636
921.64,64.273
922.11,63.182
922.58,60.273
923.05,61.545
923.52,64.091
923.99,63.364
924.46,63
924.92,57.364
925.39,61
925.86,63
926.33,56.091
926.8,61.727
927.27,59.545
927.74,60.636
928.21,61.727
928.68,60.636
929.14,62.091
929.61,61.727
930.08,61.182
930.55,65
931.02,55.909
931.49,56.636
931.96,61.727
932.42,63.364
932.89,60.636
933.36,57.727
933.83,60.091
934.3,59
934.77,60.455
935.23,59.545
935.7,60.818
936.17,62.636
936.64,61.909
937.11,61.545
937.58,55.909
938.04,58.455
938.51,56.636
938.98,58.636
939.45,64.636
939.91,61.545
940.38,59.545
940.85,55.727
941.32,59.364
941.79,57.364
942.25,55.364
942.72,57
943.19,58.818
943.66,56.818
944.12,57.909
944.59,52.818
945.06,58.818
945.53,58.091
946,54.455
946.46,56.091
946.93,56.818
947.4,54.091
947.86,53.182
948.33,55.545
948.8,58.091
949.26,55.182
949.73,53
950.2,59
950.67,55
951.13,55.364
951.6,57
952.07,56.455
952.53,56.636
953,53.727
953.47,56.273
953.93,56.455
954.4,56.091
954.87,52.091
955.33,55.727
955.8,54.818
956.27,55.909
956.74,55
957.2,57.182
957.67,57.364
958.13,50.818
958.6,55
959.07,55.545
959.53,53.909
960,55.182
960.47,54.818
960.93,51.727
961.4,56.273
961.87,52.091
962.33,52.273
962.8,53.545
963.26,53
963.73,52.818
964.2,55.364
964.66,50.091
965.13,54.091
965.59,54.455
966.06,53.364
966.52,55.182
966.99,54.455
967.46,51.727
967.92,51.909
968.39,54.636
968.86,56.273
969.32,52.818
969.78,54.273
970.25,53.182
970.72,52.091
971.18,50.455
971.65,53.909
972.11,53
972.58,54.455
973.04,55
973.51,50.818
973.98,49.727
974.44,55.182
974.9,49.727
975.37,51.364
975.84,53.364
976.3,53.182
976.77,49.545
977.23,50.273
977.7,51.727
978.16,54.455
978.63,49.364
979.09,51.364
979.56,53.727
980.02,50.636
980.49,57.182
980.95,54.455
981.41,51
981.88,52.818
982.35,56.091
982.81,53.364
983.27,50.818
983.74,52.091
984.2,52.091
984.67,55.727
985.13,52.091
985.6,52.636
986.06,51.545
986.52,53.909
986.99,54.455
987.45,54.273
987.92,54.091
988.38,53.182
988.85,54.455
989.31,54.636
989.78,53.364
990.24,52.636
990.7,51.727
991.17,51.727
991.63,50.636
992.1,52.636
992.56,52.818
993.02,51.727
993.49,49
993.95,50.455
994.41,55.727
994.88,51.727
995.34,50.273
995.8,49.909
996.27,55.545
996.73,52.455
997.2,51.182
997.66,51.182
998.12,49
998.59,48.455
999.05,50.455
999.51,52.818
999.98,51.364
1000.4,53.182
1000.9,49.909
1001.4,52.455
1001.8,50.818
1002.3,51.364
1002.8,50.455
1003.2,52.273
1003.7,49.364
1004.1,49.727
1004.6,48.818
1005.1,48.455
1005.5,54.818
1006,55.727
1006.5,51.364
1006.9,53
1007.4,52.818
1007.9,53.727
1008.3,50.818
1008.8,51.364
1009.2,52.455
1009.7,53.909
1010.2,53
1010.6,52.455
1011.1,50.818
1011.5,52.273
1012,50.455
1012.5,52.636
1012.9,50.091
1013.4,54.273
1013.9,52.818
1014.3,50.091
1014.8,50.636
1015.2,51
1015.7,53.364
1016.2,51.364
1016.6,50.091
1017.1,53.182
1017.6,49.727
1018,51.364
1018.5,51.545
1018.9,52.455
1019.4,48.636
1019.9,53.909
1020.3,50.636
1020.8,53.727
1021.2,55.364
1021.7,55.909
1022.2,55.909
1022.6,53.182
1023.1,51
1023.6,51.727
1024,55.364
1024.5,50.273
1025,56.273
1025.4,54.636
1025.9,57
1026.3,56.455
1026.8,57.182
1027.2,57.364
1027.7,53
1028.2,57.545
1028.6,56.455
1029.1,57
1029.6,56.636
1030,57.909
1030.5,58.636
1030.9,57.364
1031.4,61.909
1031.9,61
1032.3,60.818
1032.8,58.818
1033.2,64.091
1033.7,63.727
1034.2,60.636
1034.6,61.182
1035.1,65.182
1035.5,61.364
1036,63.182
1036.5,63.364
1036.9,65.182
1037.4,64.818
1037.8,68.091
1038.3,66.454
1038.8,63.909
1039.2,65.727
1039.7,64.818
1040.2,64.636
1040.6,64.818
1041.1,69.727
1041.5,68.273
1042,68.091
1042.5,67.545
1042.9,71
1043.4,66.454
1043.8,67.546
1044.3,69.727
1044.8,65.727
1045.2,70.273
1045.7,69.546
1046.1,69.364
1046.6,71
1047.1,74.636
1047.5,73
1048,76.273
1048.4,80.455
1048.9,80.818
1049.4,84.818
1049.8,88.091
1050.3,86.636
1050.7,88.636
1051.2,99.546
1051.7,101.55
1052.1,106.27
1052.6,108.09
1053,115.55
1053.5,121.91
1054,128.82
1054.4,134.09
1054.9,143.18
1055.3,147.73
1055.8,156.09
1056.2,169.54
1056.7,178.46
1057.2,184.64
1057.6,198.82
1058.1,210.09
1058.5,221.54
1059,225.36
1059.5,231.91
1059.9,250.09
1060.4,258.64
1060.8,274.27
1061.3,278.09
1061.8,291.91
1062.2,305.73
1062.7,311
1063.1,322.09
1063.6,323.18
1064,330.09
1064.5,343.91
1065,351.55
1065.4,359.36
1065.9,362.45
1066.3,357.91
1066.8,370.64
1067.2,365
1067.7,377.55
1068.2,369.91
1068.6,375.73
1069.1,383
1069.5,373.91
1070,366.82
1070.5,357.18
1070.9,371.73
1071.4,367.55
1071.8,355.18
1072.3,349
1072.8,351
1073.2,338.45
1073.7,335.91
1074.1,323.18
1074.6,321.73
1075,307.73
1075.5,297.91
1076,293.73
1076.4,287.18
1076.9,280.09
1077.3,270.27
1077.8,264.27
1078.2,249.73
1078.7,247
1079.2,235
1079.6,227.91
1080.1,221.36
1080.5,208.64
1081,210.09
1081.4,197.54
1081.9,187
1082.4,175.73
1082.8,171.73
1083.3,170.46
1083.7,159.54
1084.2,153.73
1084.6,151.54
1085.1,144.82
1085.6,131.18
1086,129
1086.5,123.91
1086.9,118.82
1087.4,114.27
1087.8,110.82
1088.3,108.09
1088.8,97
1089.2,101.36
1089.7,97
1090.1,89.546
1090.6,87.182
1091,86.273
1091.5,84.454
1092,78.818
1092.4,74.818
1092.9,75.909
1093.3,70.091
1093.8,69.364
1094.2,65.909
1094.7,68.454
1095.1,65.727
1095.6,63.182
1096.1,57.545
1096.5,61.364
1097,58.273
1097.4,57.727
1097.9,58.455
1098.3,58.455
1098.8,55.364
1099.2,53
1099.7,56.636
1100.2,51.364
1100.6,54.636
1101.1,52.455
1101.5,49.727
1102,49.182
1102.4,51.545
1102.9,50.455
1103.3,48.091
1103.8,48.455
1104.3,48.636
1104.7,49.364
1105.2,51
1105.6,50.273
1106.1,45
1106.5,45.909
1107,48.273
1107.5,44.818
1107.9,48.455
1108.4,49
1108.8,45.727
1109.3,45.727
1109.7,47.545
1110.2,47.364
1110.6,45.909
1111.1,46.636
1111.5,43.727
1112,43.364
1112.5,46.091
1112.9,46.273
1113.4,44.818
1113.8,40.273
1114.3,47.182
1114.7,47.909
1115.2,47.545
1115.6,46.455
1116.1,44.273
1116.5,45.909
1117,45.182
1117.5,42.455
1117.9,46.091
1118.4,43.182
1118.8,45.909
1119.3,43.364
1119.7,43.182
1120.2,42.636
1120.6,41.909
1121.1,43.909
1121.5,43.909
1122,41.182
1122.5,44.273
1122.9,45.364
1123.4,43.182
1123.8,43
1124.3,44.636
1124.7,42.636
1125.2,43.909
1125.6,43.727
1126.1,46.091
1126.5,47
1127,41.545
1127.4,45.364
1127.9,39.182
1128.3,40.636
1128.8,42.091
1129.3,41.909
1129.7,38.818
1130.2,45.364
1130.6,41.909
1131.1,41.182
1131.5,45.727
1132,41
1132.4,44.091
1132.9,42.818
1133.3,42.818
1133.8,43
1134.2,43.545
1134.7,41.545
1135.2,44.273
1135.6,41.545
1136.1,44.091
1136.5,41.909
1137,41.727
1137.4,42.818
1137.9,40.455
1138.3,41.909
1138.8,43.182
1139.2,41.727
1139.7,39.909
1140.1,41.909
1140.6,39.909
1141,40.455
1141.5,44.091
1142,40.273
1142.4,39.909
1142.8,46.273
1143.3,39
1143.8,43
1144.2,38.455
1144.7,41.545
1145.1,39.909
1145.6,42.455
1146,43.182
1146.5,38.636
1146.9,42.636
1147.4,38.091
1147.8,43.364
1148.3,40.455
1148.7,43.364
1149.2,42.091
1149.6,40.091
1150.1,41.909
1150.5,43.727
1151,39
1151.4,42.818
1151.9,37.909
1152.3,40.818
1152.8,44.091
1153.2,43.727
1153.7,43.727
1154.2,37.182
1154.6,43.182
1155.1,37.182
1155.5,42.818
1156,39.182
1156.4,38.636
1156.9,39.545
1157.3,42.455
1157.8,38.636
1158.2,38.636
1158.7,39.909
1159.1,41.545
1159.6,38.091
1160,40.273
1160.5,42.636
1160.9,39.364
1161.4,40.455
1161.8,38.818
1162.3,40.455
1162.7,41
1163.2,37.545
1163.6,39.182
1164.1,37.364
1164.5,37.727
1165,40.636
1165.4,40.636
1165.9,37.727
1166.3,40.818
1166.8,36.818
1167.2,39
1167.7,40.818
1168.1,38.091
1168.6,38.818
1169,36.273
1169.5,38.273
1169.9,40.273
1170.4,40.273
1170.8,38.818
1171.3,41
1171.7,38.636
1172.2,38.818
1172.6,40.818
1173.1,39.364
1173.5,37.545
1174,39.909
1174.5,34.818
1174.9,38.455
1175.3,37.727
1175.8,39.727
1176.2,37.364
1176.7,37.545
1177.2,37.364
1177.6,33.909
1178,36.455
1178.5,38.818
1179,40.273
1179.4,35.364
1179.8,35.909
1180.3,37.545
1180.8,35.909
1181.2,35.545
1181.6,40.455
1182.1,36.818
1182.5,37.545
1183,36.455
1183.4,37.909
1183.9,38.273
1184.3,38.636
1184.8,34.636
1185.2,38.636
1185.7,39
1186.1,38.091
1186.6,35.545
1187,36.273
1187.5,37
1187.9,38.273
1188.4,34.455
1188.8,38.455
1189.3,36.636
1189.7,37.545
1190.2,39.545
1190.6,39.909
1191.1,37.909
1191.5,40.091
1192,39.364
1192.4,37.182
1192.9,34.636
1193.3,42.455
1193.8,39.182
1194.2,38.455
1194.7,36.273
1195.1,36.091
1195.6,35.909
1196,39.545
1196.5,36.818
1196.9,37.727
1197.4,35.545
1197.8,37.364
1198.3,37.545
1198.7,36.455
1199.2,35.545
1199.6,36.273
1200,36.273
1200.5,36.818
1201,38.273
1201.4,39.909
1201.8,36.273
1202.3,36.273
1202.7,37.909
1203.2,35
1203.6,39.364
1204.1,36.455
1204.5,37
1205,36.818
1205.4,36.273
1205.9,37.182
1206.3,40.091
1206.8,38.091
1207.2,37.909
1207.7,37.909
1208.1,38.273
1208.6,40.818
1209,36.818
1209.5,36.091
1209.9,37.182
1210.3,37.727
1210.8,37.364
1211.2,40.455
1211.7,39
1212.1,34.818
1212.6,37
1213,37.182
1213.5,35.182
1213.9,36.636
1214.4,35.545
1214.8,38.636
1215.3,37.182
1215.7,36.636
1216.2,38.636
1216.6,35.909
1217.1,37.909
1217.5,40.455
1218,36.091
1218.4,38.455
1218.8,37.364
1219.3,38.818
1219.7,38.455
1220.2,34.636
1220.6,38.091
1221.1,34.091
1221.5,36.455
1222,35.727
1222.4,35.909
1222.9,38.636
1223.3,34.091
1223.8,40.091
1224.2,36.273
1224.7,38.818
1225.1,41.182
1225.5,38.636
1226,34.455
1226.4,36.636
1226.9,34.636
1227.3,38.455
1227.8,36.455
1228.2,38.818
1228.7,37.182
1229.1,36.091
1229.6,37
1230,40.273
1230.5,35.727
1230.9,34.455
1231.3,37.727
1231.8,36.091
1232.2,38.636
1232.7,38.273
1233.1,37.909
1233.6,40.818
1234,39.909
1234.5,41
1234.9,38.818
1235.3,37.364
1235.8,35.909
1236.2,37.727
1236.7,36.455
1237.1,39.364
1237.6,38.636
1238,42.818
1238.5,39
1238.9,38.818
1239.4,37.182
1239.8,38.455
1240.2,40.818
1240.7,41.545
1241.1,38.636
1241.6,36.455
1242,43.182
1242.5,42.091
1242.9,41
1243.4,40.273
1243.8,41.909
1244.3,41.727
1244.7,42.455
1245.2,38.818
1245.6,43.364
1246,40.091
1246.5,42.818
1246.9,39.182
1247.4,45.727
1247.8,45
1248.3,44.091
1248.7,43.364
1249.2,47.545
1249.6,47.364
