raman_shift, int
cm^-1, a.u.
850.38,82.273
850.86,81.909
851.33,78.273
851.81,83.909
852.28,86.636
852.76,86.273
853.23,85.727
853.7,81.546
854.18,85
854.65,83.546
855.13,89.182
855.6,88.636
856.08,88.091
856.55,83.909
857.02,84.818
857.5,86.273
857.97,82.636
858.45,88.818
858.92,85
859.39,88.091
859.87,86.273
860.34,85.546
860.82,88.091
861.29,89.909
861.76,88.273
862.24,87
862.71,85.909
863.18,85.182
863.66,88.091
864.13,82.636
864.6,92.273
865.08,89.545
865.55,85.364
866.02,83.182
866.5,85.909
866.97,87.909
867.45,84.455
867.92,82.818
868.39,81.727
868.87,83
869.34,84.636
869.81,81.546
870.28,86.818
870.76,84.454
871.23,82.091
871.7,79
872.18,81.182
872.65,80.455
873.12,81.182
873.59,81.546
874.07,81.364
874.54,82.818
875.01,80.091
875.49,81.182
875.96,75.727
876.43,79.546
876.9,79.909
877.38,77.909
877.85,71.182
878.32,80.636
878.79,78.273
879.27,75.364
879.74,77.182
880.21,76.636
880.68,76.091
881.15,77.182
881.63,73
882.1,75.364
882.57,76.273
883.04,72.091
883.52,75.546
883.99,74.636
884.46,73.546
884.93,71.909
885.4,76.636
885.88,72.273
886.35,74.454
886.82,72.273
887.29,75.727
887.76,69
888.24,70.091
888.71,75.364
889.18,68.091
889.65,73.545
890.12,69.364
890.59,68.636
891.07,70.636
891.54,72.091
892.01,68.273
892.48,72.818
892.95,71
893.42,73.182
893.89,71.727
894.37,73
894.84,77.182
895.31,70.636
895.78,77
896.25,72.818
896.72,71.727
897.19,72.454
897.66,72.636
898.13,68.818
898.61,72.454
899.08,73
899.55,71.182
900.02,67.364
900.49,71.546
900.96,73.546
901.43,69
901.9,70.454
902.37,73
902.84,69.546
903.31,72.454
903.78,71.546
904.26,75
904.73,71.364
905.2,69.364
905.67,75.364
906.14,71.364
906.61,72.455
907.08,65.909
907.55,74.454
908.02,74.091
908.49,72.091
908.96,72.454
909.43,69.909
909.9,68.818
910.37,72.273
910.84,68.273
911.31,74.818
911.78,70.091
912.25,72.091
912.72,72.818
913.19,68.818
913.66,70.273
914.13,72.636
914.6,69
915.07,69.182
915.54,71.727
916.01,69.909
916.48,69.364
916.95,70.454
917.42,71.364
917.89,63.545
918.36,71
918.83,70.273
919.29,70.636
919.76,71.545
920.23,69.364
920.7,68.636
921.17,70.636
921.64,72.818
922.11,70.273
922.58,70.818
923.05,68.818
923.52,66.273
923.99,70.818
924.46,68.818
924.92,68.273
925.39,70.454
925.86,73
926.33,70.455
926.8,69.364
927.27,75.182
927.74,68.273
928.21,65.727
928.68,71.182
929.14,67
929.61,69
930.08,70.091
930.55,68.091
931.02,67
931.49,67.545
931.96,70.454
932.42,65.364
932.89,69.546
933.36,68.636
933.83,68.636
934.3,69
934.77,62.455
935.23,68.636
935.7,69.546
936.17,65.727
936.64,69.545
937.11,67.182
937.58,67
938.04,66.273
938.51,67.909
938.98,64.636
939.45,67.364
939.91,65.364
940.38,67.727
940.85,65
941.32,65.546
941.79,65
942.25,60.091
942.72,68.636
943.19,67.909
943.66,64.818
944.12,63.364
944.59,65.727
945.06,65.909
945.53,66.636
946,65.364
946.46,63.364
946.93,64.454
947.4,65.182
947.86,65.364
948.33,63.545
948.8,65.182
949.26,66.454
949.73,62.455
950.2,60.455
950.67,62.636
951.13,66.273
951.6,62.636
952.07,68.091
952.53,66.091
953,62.818
953.47,62.273
953.93,65.182
954.4,63.364
954.87,63.182
955.33,63
955.8,61
956.27,65.364
956.74,65.182
957.2,60.818
957.67,62.818
958.13,63
958.6,64.091
959.07,63.727
959.53,63
960,61
960.47,65.182
960.93,62.091
961.4,64.636
961.87,63.182
962.33,61.909
962.8,63
963.26,64.455
963.73,58.455
964.2,63.182
964.66,58.455
965.13,63.545
965.59,61.364
966.06,65.364
966.52,61.545
966.99,59.364
967.46,61.727
967.92,58.636
968.39,60.273
968.86,57
969.32,58.273
969.78,61.545
970.25,65.364
970.72,60.273
971.18,62.455
971.65,57
972.11,60.091
972.58,60.273
973.04,59.727
973.51,61
973.98,59.182
974.44,60.273
974.9,57.909
975.37,62.091
975.84,58.636
976.3,60.636
976.77,61.182
977.23,60.273
977.7,57.545
978.16,62.091
978.63,59.727
979.09,57.364
979.56,59.909
980.02,58.273
980.49,57.364
980.95,57.182
981.41,58.818
981.88,59.909
982.35,61.364
982.81,59.545
983.27,65.182
983.74,60.091
984.2,57.182
984.67,59.727
985.13,61.364
985.6,62.455
986.06,62.455
986.52,61.545
986.99,59.182
987.45,60.091
987.92,56.636
988.38,59.909
988.85,59
989.31,63.364
989.78,60.818
990.24,61.909
990.7,59.364
991.17,57
991.63,60.636
992.1,61.727
992.56,58.273
993.02,55.909
993.49,54.273
993.95,59.909
994.41,56.818
994.88,56.273
995.34,59.182
995.8,61.727
996.27,59.182
996.73,55.364
997.2,54.636
997.66,58.455
998.12,57.909
998.59,59.364
999.05,60.273
999.51,54.091
999.98,57
1000.4,59.364
1000.9,58.636
1001.4,62.091
1001.8,58.636
1002.3,58.091
1002.8,58.818
1003.2,58.273
1003.7,62.273
1004.1,58.818
1004.6,58.273
1005.1,61.182
1005.5,59.364
1006,59.182
1006.5,60.273
1006.9,57.727
1007.4,61
1007.9,61.182
1008.3,56.273
1008.8,57.182
1009.2,61.364
1009.7,61.364
1010.2,56.455
1010.6,56.636
1011.1,59.727
1011.5,57.364
1012,60.091
1012.5,57.364
1012.9,58.273
1013.4,60.455
1013.9,56.818
1014.3,59.909
1014.8,54.818
1015.2,61.545
1015.7,61.545
1016.2,60.273
1016.6,61.182
1017.1,58.091
1017.6,63.545
1018,61.545
1018.5,58.091
1018.9,59.182
1019.4,60.273
1019.9,62.818
1020.3,57.909
1020.8,60.636
1021.2,65
1021.7,61.909
1022.2,63
1022.6,61.727
1023.1,58.455
1023.6,61.364
1024,60.091
1024.5,61.545
1025,64.454
1025.4,61.909
1025.9,61.364
1026.3,66.454
1026.8,65
1027.2,67.909
1027.7,61.545
1028.2,63.364
1028.6,64.091
1029.1,69.546
1029.6,69.182
1030,67.364
1030.5,67.182
1030.9,69.182
1031.4,69
1031.9,71.546
1032.3,70.454
1032.8,76.273
1033.2,68.091
1033.7,73.909
1034.2,75
1034.6,73.546
1035.1,76.273
1035.5,76.454
1036,74.454
1036.5,78.455
1036.9,78.454
1037.4,79.909
1037.8,77.545
1038.3,77.727
1038.8,82.636
1039.2,79.909
1039.7,80.454
1040.2,77.909
1040.6,80.273
1041.1,81
1041.5,78.091
1042,81.546
1042.5,83.546
1042.9,80.636
1043.4,84.636
1043.8,83
1044.3,87
1044.8,85.909
1045.2,85.909
1045.7,86.454
1046.1,91.909
1046.6,85
1047.1,92.636
1047.5,96.273
1048,96.818
1048.4,97.909
1048.9,102.45
1049.4,101.18
1049.8,107.73
1050.3,105.55
1050.7,115
1051.2,118.45
1051.7,124.64
1052.1,132.46
1052.6,129.54
1053,148.46
1053.5,157.73
1054,168.27
1054.4,172.64
1054.9,186.82
1055.3,195.54
1055.8,205.54
1056.2,211.91
1056.7,227.54
1057.2,245.54
1057.6,256.64
1058.1,269
1058.5,281
1059,308.09
1059.5,303.36
1059.9,333
1060.4,340.09
1060.8,358.27
1061.3,368.45
1061.8,391.55
1062.2,402.64
1062.7,410.27
1063.1,422.64
1063.6,447
1064,443.18
1064.5,455.18
1065,470.45
1065.4,476.45
1065.9,475.91
1066.3,486.09
1066.8,494.45
1067.2,503.18
1067.7,513.36
1068.2,513
1068.6,511.73
1069.1,508.27
1069.5,510.64
1070,490.45
1070.5,509.18
1070.9,492.45
1071.4,494.64
1071.8,489
1072.3,479.36
1072.8,472.45
1073.2,476.27
1073.7,465.55
1074.1,456.82
1074.6,439.55
1075,434.27
1075.5,421.91
1076,405.18
1076.4,392.09
1076.9,379.91
1077.3,384.27
1077.8,365
1078.2,355.55
1078.7,343.55
1079.2,319.91
1079.6,323.73
1080.1,307.18
1080.5,289.36
1081,289.91
1081.4,275
1081.9,254.82
1082.4,250.46
1082.8,241
1083.3,225.18
1083.7,224.27
1084.2,211
1084.6,199.18
1085.1,191.36
1085.6,185.73
1086,173.36
1086.5,166.64
1086.9,154.27
1087.4,154.27
1087.8,144.46
1088.3,133.18
1088.8,134.09
1089.2,133.91
1089.7,121.18
1090.1,119.36
1090.6,116.27
1091,119.36
1091.5,105.55
1092,93.727
1092.4,96.818
1092.9,96.455
1093.3,92.636
1093.8,89
1094.2,86.636
1094.7,82.091
1095.1,81.909
1095.6,81
1096.1,76.636
1096.5,71.182
1097,71.364
1097.4,75.545
1097.9,69.545
1098.3,68.818
1098.8,65.909
1099.2,66.091
1099.7,68.273
1100.2,62.818
1100.6,64.454
1101.1,61
1101.5,59.727
1102,62.091
1102.4,62.455
1102.9,56.818
1103.3,57.727
1103.8,53.727
1104.3,61.727
1104.7,57.909
1105.2,54.636
1105.6,57.727
1106.1,54.636
1106.5,57.182
1107,55.909
1107.5,56.273
1107.9,54.091
1108.4,57.545
1108.8,56.455
1109.3,51.182
1109.7,52.636
1110.2,52.455
1110.6,49.364
1111.1,51.182
1111.5,53.727
1112,51.364
1112.5,53.909
1112.9,52.455
1113.4,51
1113.8,55.364
1114.3,51.182
1114.7,51.545
1115.2,50.455
1115.6,51.182
1116.1,52.091
1116.5,52.273
1117,47.182
1117.5,51
1117.9,50.273
1118.4,52.091
1118.8,53
1119.3,49.727
1119.7,57.545
1120.2,48.636
1120.6,51
1121.1,50.636
1121.5,48.273
1122,47.727
1122.5,50.091
1122.9,50.636
1123.4,48.273
1123.8,53.545
1124.3,53
1124.7,49.727
1125.2,49.909
1125.6,48.455
1126.1,49.545
1126.5,50.273
1127,48.091
1127.4,52.273
1127.9,51.545
1128.3,53.909
1128.8,46.091
1129.3,48.818
1129.7,50.091
1130.2,49.727
1130.6,47
1131.1,52.091
1131.5,49.182
1132,52.091
1132.4,45
1132.9,51
1133.3,50.091
1133.8,58.091
1134.2,51.545
1134.7,45.909
1135.2,49
1135.6,50.455
1136.1,47.364
1136.5,46.091
1137,50.818
1137.4,48.636
1137.9,51.727
1138.3,47.182
1138.8,44.455
1139.2,47
1139.7,47.909
1140.1,49.545
1140.6,46.273
1141,47.727
1141.5,47.182
1142,49.182
1142.4,47.364
1142.8,47.364
1143.3,48.455
1143.8,49.182
1144.2,44.636
1144.7,45.364
1145.1,50.091
1145.6,48.818
1146,46.273
1146.5,46.091
1146.9,47.545
1147.4,47.545
1147.8,47.909
1148.3,45.364
1148.7,46.273
1149.2,48.636
1149.6,47.182
1150.1,46.273
1150.5,41.727
1151,46.818
1151.4,46.273
1151.9,45.727
1152.3,43.909
1152.8,44.636
1153.2,45.909
1153.7,46.455
1154.2,47.545
1154.6,49
1155.1,50.636
1155.5,47.545
1156,46.273
1156.4,45.909
1156.9,47
1157.3,49
1157.8,45.364
1158.2,44.455
1158.7,46.455
1159.1,50.455
1159.6,47.727
1160,47.545
1160.5,44.636
1160.9,49.182
1161.4,45.727
1161.8,46.273
1162.3,44.273
1162.7,47.182
1163.2,46.455
1163.6,47.364
1164.1,45.182
1164.5,47.364
1165,48.636
1165.4,46.273
1165.9,43
1166.3,48.455
1166.8,45.909
1167.2,46.091
1167.7,45.545
1168.1,48.273
1168.6,43.182
1169,46.455
1169.5,47.909
1169.9,43.182
1170.4,45.182
1170.8,44.636
1171.3,45.364
1171.7,44.636
1172.2,44.273
1172.6,44.455
1173.1,47
1173.5,43.182
1174,43.182
1174.5,43.545
1174.9,47.182
1175.3,43.727
1175.8,47.909
1176.2,46.455
1176.7,46.273
1177.2,46.455
1177.6,45.727
1178,42.636
1178.5,43.545
1179,45
1179.4,45.727
1179.8,44.273
1180.3,44.818
1180.8,42.091
1181.2,47.909
1181.6,45.364
1182.1,43.364
1182.5,48.818
1183,43.727
1183.4,43.909
1183.9,43.182
1184.3,43.545
1184.8,43.727
1185.2,45.545
1185.7,44.091
1186.1,46.818
1186.6,47.182
1187,43.909
1187.5,45.909
1187.9,45.364
1188.4,43.364
1188.8,44.636
1189.3,45.182
1189.7,47.727
1190.2,45.545
1190.6,44.273
1191.1,42.636
1191.5,45.909
1192,46.273
1192.4,43
1192.9,43.182
1193.3,44.455
1193.8,43
1194.2,41.545
1194.7,41.727
1195.1,46.455
1195.6,43.727
1196,45.182
1196.5,40.455
1196.9,41.545
1197.4,40.273
1197.8,43.909
1198.3,43.545
1198.7,39.727
1199.2,43.182
1199.6,43.727
1200,44.091
1200.5,42.273
1201,45.727
1201.4,42.273
1201.8,42.455
1202.3,45
1202.7,40.455
1203.2,41.909
1203.6,43.545
1204.1,41.182
1204.5,40.273
1205,43.182
1205.4,43
1205.9,39
1206.3,43.182
1206.8,45.182
1207.2,43.364
1207.7,41.727
1208.1,43.545
1208.6,44.273
1209,41.364
1209.5,45.909
1209.9,43.182
1210.3,42.636
1210.8,39.545
1211.2,42.818
1211.7,45.182
1212.1,39
1212.6,43.545
1213,42.818
1213.5,45.364
1213.9,45.364
1214.4,41.545
1214.8,47
1215.3,44.818
1215.7,42.455
1216.2,42.818
1216.6,42.636
1217.1,44.636
1217.5,43.182
1218,40.455
1218.4,45.364
1218.8,42.455
1219.3,44.091
1219.7,43.182
1220.2,41.727
1220.6,44.636
1221.1,47.545
1221.5,40.818
1222,41.364
1222.4,41.909
1222.9,45.545
1223.3,41.545
1223.8,40.455
1224.2,42.273
1224.7,47.364
1225.1,44.091
1225.5,41.727
1226,41.182
1226.4,44.091
1226.9,40.091
1227.3,41
1227.8,41
1228.2,41
1228.7,43.727
1229.1,43.545
1229.6,41.182
1230,43
1230.5,43
1230.9,45.182
1231.3,42.455
1231.8,41.909
1232.2,43.727
1232.7,43.182
1233.1,43
1233.6,42.818
1234,43.727
1234.5,47.545
1234.9,42.636
1235.3,45.182
1235.8,45.545
1236.2,40.818
1236.7,42.091
1237.1,42.818
1237.6,44.091
1238,43
1238.5,47.364
1238.9,45.182
1239.4,47
1239.8,43
1240.2,47
1240.7,43.545
1241.1,46.455
1241.6,46.818
1242,47.182
1242.5,44.818
1242.9,44.455
1243.4,46.091
1243.8,49.545
1244.3,46.455
1244.7,46.273
1245.2,46.636
1245.6,46.455
1246,49
1246.5,48.455
1246.9,47.182
1247.4,49.727
1247.8,53.364
1248.3,48.818
1248.7,49.909
1249.2,49.182
1249.6,49.364
